Frequency (Hz)	Level (dB)
43.066406	-15.757483
86.132812	-16.882326
129.199219	-17.663729
172.265625	-18.125397
215.332031	-17.881186
258.398438	-17.543444
301.464844	-17.194689
344.531250	-16.760069
387.597656	-17.016636
430.664062	-16.924202
473.730469	-16.621916
516.796875	-16.741503
559.863281	-16.362255
602.929688	-15.829667
645.996094	-15.853980
689.062500	-16.175091
732.128906	-15.752032
775.195312	-15.913077
818.261719	-15.669269
861.328125	-15.834858
904.394531	-16.276028
947.460938	-16.164675
990.527344	-15.868427
1033.593750	-15.619219
1076.660156	-15.659386
1119.726562	-16.036783
1162.792969	-16.269238
1205.859375	-15.696103
1248.925781	-15.836883
1291.992188	-16.229137
1335.058594	-16.637415
1378.125000	-16.311594
1421.191406	-16.678354
1464.257812	-17.115900
1507.324219	-16.973633
1550.390625	-16.799416
1593.457031	-16.728401
1636.523438	-17.131144
1679.589844	-17.046463
1722.656250	-17.156013
1765.722656	-17.460844
1808.789062	-17.486071
1851.855469	-17.890900
1894.921875	-17.990587
1937.988281	-18.123121
1981.054688	-18.321720
2024.121094	-18.382425
2067.187500	-18.259024
2110.253906	-18.684597
2153.320312	-18.504574
2196.386719	-18.571760
2239.453125	-18.724527
2282.519531	-18.420794
2325.585938	-18.562521
2368.652344	-18.718004
2411.718750	-19.127771
2454.785156	-18.912428
2497.851562	-19.080776
2540.917969	-19.414944
2583.984375	-19.623055
2627.050781	-19.630857
2670.117188	-19.790678
2713.183594	-19.842880
2756.250000	-19.872358
2799.316406	-19.956165
2842.382812	-20.352287
2885.449219	-20.267456
2928.515625	-20.284851
2971.582031	-20.626316
3014.648438	-20.917074
3057.714844	-21.025200
3100.781250	-20.744308
3143.847656	-21.010489
3186.914062	-21.033384
3229.980469	-20.972925
3273.046875	-21.302931
3316.113281	-21.333735
3359.179688	-21.322956
3402.246094	-21.638641
3445.312500	-21.534733
3488.378906	-21.892319
3531.445312	-22.365005
3574.511719	-22.230717
3617.578125	-22.246101
3660.644531	-22.089190
3703.710938	-21.952847
3746.777344	-22.139425
3789.843750	-22.623350
3832.910156	-22.301447
3875.976562	-22.455862
3919.042969	-22.631613
3962.109375	-22.768223
4005.175781	-22.439150
4048.242188	-22.546183
4091.308594	-22.486967
4134.375000	-22.589169
4177.441406	-22.892992
4220.507812	-22.988045
4263.574219	-23.010178
4306.640625	-23.311192
4349.707031	-23.125349
4392.773438	-23.368793
4435.839844	-23.921507
4478.906250	-23.885269
4521.972656	-23.593323
4565.039062	-23.686760
4608.105469	-23.817417
4651.171875	-23.846676
4694.238281	-23.900381
4737.304688	-24.164757
4780.371094	-23.729717
4823.437500	-23.902243
4866.503906	-24.336805
4909.570312	-24.363588
4952.636719	-24.019913
4995.703125	-24.294281
5038.769531	-24.694258
5081.835938	-24.612854
5124.902344	-24.806007
5167.968750	-24.867727
5211.035156	-24.939823
5254.101562	-24.778973
5297.167969	-25.017460
5340.234375	-24.628960
5383.300781	-24.926825
5426.367188	-25.430895
5469.433594	-25.354330
5512.500000	-25.524000
5555.566406	-25.673893
5598.632812	-25.382286
5641.699219	-25.361458
5684.765625	-25.737528
5727.832031	-25.950151
5770.898438	-26.082008
5813.964844	-25.875154
5857.031250	-25.982876
5900.097656	-25.907610
5943.164062	-25.661846
5986.230469	-25.606642
6029.296875	-26.053686
6072.363281	-26.273016
6115.429688	-25.865776
6158.496094	-25.907883
6201.562500	-26.476847
6244.628906	-26.600822
6287.695312	-26.712036
6330.761719	-26.346634
6373.828125	-26.431532
6416.894531	-26.434050
6459.960938	-26.583340
6503.027344	-26.685646
6546.093750	-26.758207
6589.160156	-26.762575
6632.226562	-27.317570
6675.292969	-27.522881
6718.359375	-27.408024
6761.425781	-27.404541
6804.492188	-27.455723
6847.558594	-27.022854
6890.625000	-27.084389
6933.691406	-27.422941
6976.757812	-27.248331
7019.824219	-27.443222
7062.890625	-27.487364
7105.957031	-27.420578
7149.023438	-27.710344
7192.089844	-27.913063
7235.156250	-27.774998
7278.222656	-27.545616
7321.289062	-27.986347
7364.355469	-28.330750
7407.421875	-28.061430
7450.488281	-27.869347
7493.554688	-28.352768
7536.621094	-28.485683
7579.687500	-27.912767
7622.753906	-28.353643
7665.820312	-28.834904
7708.886719	-28.734371
7751.953125	-28.341618
7795.019531	-28.527281
7838.085938	-28.692797
7881.152344	-28.415873
7924.218750	-28.398771
7967.285156	-28.954359
8010.351562	-29.104303
8053.417969	-29.434036
8096.484375	-29.297092
8139.550781	-28.614607
8182.617188	-28.670008
8225.683594	-28.547569
8268.750000	-28.606819
8311.816406	-28.706558
8354.882812	-29.287497
8397.949219	-29.486696
8441.015625	-29.516720
8484.082031	-29.534395
8527.148438	-29.499048
8570.214844	-29.541149
8613.281250	-29.349253
8656.347656	-29.264851
8699.414062	-29.549063
8742.480469	-29.759144
8785.546875	-29.563221
8828.613281	-29.671286
8871.679688	-29.644081
8914.746094	-29.783901
8957.812500	-30.136906
9000.878906	-30.242729
9043.945312	-29.964788
9087.011719	-29.926540
9130.078125	-30.370007
9173.144531	-30.294777
9216.210938	-29.808210
9259.277344	-29.955639
9302.343750	-30.298265
9345.410156	-30.539848
9388.476562	-30.557610
9431.542969	-30.554893
9474.609375	-30.672304
9517.675781	-30.803600
9560.742188	-30.674076
9603.808594	-30.245901
9646.875000	-30.764418
9689.941406	-30.592842
9733.007812	-30.243782
9776.074219	-30.262413
9819.140625	-31.005659
9862.207031	-30.987799
9905.273438	-31.123857
9948.339844	-30.996264
9991.406250	-30.960293
10034.472656	-31.406618
10077.539062	-31.120914
10120.605469	-30.904293
10163.671875	-31.003288
10206.738281	-31.220024
10249.804688	-31.459471
10292.871094	-30.878031
10335.937500	-31.195627
10379.003906	-31.349203
10422.070312	-31.469444
10465.136719	-31.418602
10508.203125	-31.455698
10551.269531	-31.488783
10594.335938	-31.258522
10637.402344	-31.238840
10680.468750	-31.727167
10723.535156	-31.642729
10766.601562	-31.372660
10809.667969	-31.644375
10852.734375	-31.766373
10895.800781	-31.936726
10938.867188	-32.021267
10981.933594	-31.931763
11025.000000	-31.784687
11068.066406	-31.733505
11111.132812	-32.207066
11154.199219	-32.337658
11197.265625	-32.382843
11240.332031	-32.270222
11283.398438	-32.075394
11326.464844	-32.028534
11369.531250	-32.520138
11412.597656	-32.777279
11455.664062	-32.197643
11498.730469	-32.260036
11541.796875	-32.576221
11584.863281	-32.746838
11627.929688	-32.639637
11670.996094	-32.729820
11714.062500	-32.888386
11757.128906	-32.721210
11800.195312	-33.138317
11843.261719	-32.914230
11886.328125	-32.216442
11929.394531	-32.488869
11972.460938	-33.075600
12015.527344	-33.210457
12058.593750	-32.996601
12101.660156	-32.568405
12144.726562	-33.026619
12187.792969	-33.346317
12230.859375	-33.373051
12273.925781	-33.313301
12316.992188	-33.395863
12360.058594	-33.375889
12403.125000	-33.334362
12446.191406	-33.221977
12489.257812	-33.414875
12532.324219	-33.359940
12575.390625	-33.735386
12618.457031	-33.530647
12661.523438	-33.289726
12704.589844	-33.068283
12747.656250	-32.846619
12790.722656	-33.591091
12833.789062	-33.752598
12876.855469	-33.536762
12919.921875	-33.589359
12962.988281	-33.862255
13006.054688	-34.073212
13049.121094	-33.744297
13092.187500	-33.760281
13135.253906	-33.820446
13178.320312	-34.032124
13221.386719	-34.030624
13264.453125	-33.883224
13307.519531	-33.682312
13350.585938	-33.833668
13393.652344	-34.348652
13436.718750	-34.433598
13479.785156	-34.601807
13522.851562	-34.190647
13565.917969	-34.465679
13608.984375	-34.550102
13652.050781	-34.334080
13695.117188	-34.469582
13738.183594	-34.498680
13781.250000	-34.684818
13824.316406	-34.371418
13867.382812	-34.351948
13910.449219	-34.317005
13953.515625	-34.464249
13996.582031	-34.834305
14039.648438	-35.015358
14082.714844	-35.260262
14125.781250	-34.971161
14168.847656	-34.876133
14211.914062	-35.077049
14254.980469	-35.176563
14298.046875	-34.855534
14341.113281	-34.716557
14384.179688	-34.652077
14427.246094	-34.564491
14470.312500	-34.799503
14513.378906	-35.341797
14556.445312	-35.400387
14599.511719	-35.524940
14642.578125	-35.168171
14685.644531	-35.182461
14728.710938	-35.415653
14771.777344	-35.154881
14814.843750	-35.017769
14857.910156	-35.112827
14900.976562	-35.095318
14944.042969	-35.733795
14987.109375	-35.195423
15030.175781	-35.492931
15073.242188	-35.293255
15116.308594	-35.432770
15159.375000	-35.661949
15202.441406	-35.676929
15245.507812	-35.916042
15288.574219	-35.914783
15331.640625	-35.734161
15374.707031	-35.832928
15417.773438	-36.016914
15460.839844	-35.962605
15503.906250	-35.906208
15546.972656	-35.981075
15590.039062	-36.253380
15633.105469	-36.243824
15676.171875	-35.818707
15719.238281	-35.894558
15762.304688	-36.123447
15805.371094	-36.421432
15848.437500	-35.809391
15891.503906	-35.653648
15934.570312	-36.303089
15977.636719	-36.447392
16020.703125	-36.623817
16063.769531	-36.450813
16106.835938	-36.333614
16149.902344	-36.487259
16192.968750	-36.205788
16236.035156	-36.166645
16279.101562	-36.518745
16322.167969	-36.572903
16365.234375	-36.735405
16408.300781	-36.225689
16451.367188	-36.325855
16494.433594	-36.602737
16537.500000	-37.234440
16580.566406	-37.288265
16623.632812	-37.032742
16666.699219	-37.040993
16709.765625	-36.535908
16752.832031	-36.320248
16795.898438	-36.588535
16838.964844	-36.557785
16882.031250	-36.778576
16925.097656	-37.346794
16968.164062	-37.165207
17011.230469	-37.004951
17054.296875	-37.337002
17097.363281	-37.750130
17140.429688	-37.385395
17183.496094	-37.279011
17226.562500	-37.861801
17269.628906	-37.672478
17312.695312	-37.401833
17355.761719	-37.568184
17398.828125	-37.486702
17441.894531	-37.005543
17484.960938	-37.239933
17528.027344	-37.456631
17571.093750	-37.265022
17614.160156	-37.098057
17657.226562	-37.198853
17700.292969	-37.481468
17743.359375	-37.743507
17786.425781	-37.923920
17829.492188	-38.165577
17872.558594	-37.772133
17915.625000	-37.824989
17958.691406	-38.026749
18001.757812	-38.483101
18044.824219	-38.004307
18087.890625	-38.144695
18130.957031	-38.493736
18174.023438	-38.195797
18217.089844	-38.348640
18260.156250	-38.704449
18303.222656	-38.588989
18346.289062	-38.379128
18389.355469	-38.704243
18432.421875	-38.667637
18475.488281	-38.378231
18518.554688	-38.478882
18561.621094	-38.479282
18604.687500	-38.506027
18647.753906	-38.494541
18690.820312	-38.762192
18733.886719	-38.715031
18776.953125	-38.541431
18820.019531	-38.597500
18863.085938	-38.522850
18906.152344	-38.512459
18949.218750	-38.740784
18992.285156	-38.608562
19035.351562	-38.345695
19078.417969	-38.429386
19121.484375	-38.483253
19164.550781	-38.972050
19207.617188	-38.883507
19250.683594	-39.072311
19293.750000	-39.561985
19336.816406	-39.537754
19379.882812	-39.725410
19422.949219	-39.621021
19466.015625	-39.631546
19509.082031	-39.687908
19552.148438	-39.407978
19595.214844	-39.339455
19638.281250	-39.328281
19681.347656	-39.235195
19724.414062	-39.009022
19767.480469	-39.207188
19810.546875	-39.771255
19853.613281	-40.133053
19896.679688	-39.939533
19939.746094	-40.075611
19982.812500	-39.831760
20025.878906	-39.401615
20068.945312	-39.561268
20112.011719	-39.807156
20155.078125	-39.773628
20198.144531	-40.050358
20241.210938	-39.833458
20284.277344	-39.948391
20327.343750	-40.243828
20370.410156	-39.927418
20413.476562	-39.988392
20456.542969	-40.053513
20499.609375	-40.668625
20542.675781	-40.526596
20585.742188	-40.749535
20628.808594	-40.888870
20671.875000	-40.528954
20714.941406	-40.929611
20758.007812	-40.970890
20801.074219	-41.073273
20844.140625	-41.195343
20887.207031	-41.490742
20930.273438	-41.066509
20973.339844	-41.296173
21016.406250	-41.596676
21059.472656	-41.795151
21102.539062	-41.823456
21145.605469	-42.009377
21188.671875	-41.877327
21231.738281	-41.964642
21274.804688	-42.512337
21317.871094	-42.283066
21360.937500	-42.471424
21404.003906	-42.731567
21447.070312	-42.812038
21490.136719	-42.675674
21533.203125	-43.009331
21576.269531	-43.255295
21619.335938	-42.938385
21662.402344	-42.943607
21705.468750	-42.793243
21748.535156	-42.924942
21791.601562	-42.775288
21834.667969	-42.418293
21877.734375	-42.524151
21920.800781	-42.231544
21963.867188	-42.284676
22006.933594	-42.500393
