Frequency (Hz)	Level (dB)
43.066406	-12.243479
86.132812	-14.914145
129.199219	-16.753237
172.265625	-18.212399
215.332031	-19.101881
258.398438	-19.744020
301.464844	-20.319735
344.531250	-21.329187
387.597656	-22.222664
430.664062	-22.672012
473.730469	-22.910254
516.796875	-23.385071
559.863281	-23.652159
602.929688	-23.533201
645.996094	-23.775158
689.062500	-24.256929
732.128906	-24.670483
775.195312	-24.972111
818.261719	-25.101040
861.328125	-25.691212
904.394531	-25.907221
947.460938	-25.869581
990.527344	-25.658445
1033.593750	-25.870329
1076.660156	-25.786346
1119.726562	-25.766762
1162.792969	-26.086102
1205.859375	-26.290653
1248.925781	-26.374126
1291.992188	-26.310993
1335.058594	-26.420952
1378.125000	-26.385839
1421.191406	-26.804031
1464.257812	-27.248051
1507.324219	-27.102526
1550.390625	-27.079473
1593.457031	-27.586964
1636.523438	-27.934978
1679.589844	-27.654102
1722.656250	-27.236647
1765.722656	-27.457500
1808.789062	-27.969213
1851.855469	-28.082457
1894.921875	-28.413002
1937.988281	-28.403973
1981.054688	-28.625957
2024.121094	-28.538418
2067.187500	-28.377745
2110.253906	-28.619682
2153.320312	-28.815275
2196.386719	-28.964760
2239.453125	-28.956432
2282.519531	-28.531090
2325.585938	-28.628214
2368.652344	-28.784239
2411.718750	-29.263361
2454.785156	-29.654526
2497.851562	-29.512924
2540.917969	-29.435455
2583.984375	-29.707943
2627.050781	-29.750010
2670.117188	-29.850143
2713.183594	-29.795355
2756.250000	-29.668997
2799.316406	-30.056286
2842.382812	-30.155756
2885.449219	-29.806425
2928.515625	-30.008522
2971.582031	-30.566660
3014.648438	-30.883074
3057.714844	-30.941534
3100.781250	-30.596189
3143.847656	-30.494970
3186.914062	-30.539141
3229.980469	-30.657139
3273.046875	-30.942078
3316.113281	-30.573639
3359.179688	-31.099262
3402.246094	-31.006237
3445.312500	-31.033657
3488.378906	-31.506786
3531.445312	-31.307516
3574.511719	-31.347441
3617.578125	-31.619141
3660.644531	-31.356546
3703.710938	-31.216852
3746.777344	-31.578400
3789.843750	-31.806610
3832.910156	-31.845097
3875.976562	-31.725546
3919.042969	-32.144135
3962.109375	-32.621571
4005.175781	-32.191952
4048.242188	-32.186203
4091.308594	-32.104050
4134.375000	-31.854303
4177.441406	-32.266312
4220.507812	-32.901833
4263.574219	-32.917870
4306.640625	-32.801994
4349.707031	-32.726551
4392.773438	-32.859554
4435.839844	-33.041660
4478.906250	-33.084202
4521.972656	-33.399235
4565.039062	-33.243443
4608.105469	-33.609398
4651.171875	-33.847233
4694.238281	-33.477699
4737.304688	-33.464260
4780.371094	-33.383068
4823.437500	-33.511471
4866.503906	-33.802074
4909.570312	-33.731060
4952.636719	-33.793423
4995.703125	-33.919971
5038.769531	-34.305466
5081.835938	-34.062450
5124.902344	-34.090435
5167.968750	-33.834442
5211.035156	-33.681931
5254.101562	-34.170475
5297.167969	-34.687969
5340.234375	-34.269291
5383.300781	-34.515835
5426.367188	-34.791111
5469.433594	-34.844116
5512.500000	-35.282368
5555.566406	-34.983925
5598.632812	-34.652702
5641.699219	-34.882446
5684.765625	-34.864922
5727.832031	-34.845245
5770.898438	-35.288090
5813.964844	-35.133854
5857.031250	-35.155857
5900.097656	-35.213886
5943.164062	-35.299759
5986.230469	-35.602314
6029.296875	-35.624500
6072.363281	-35.582607
6115.429688	-35.411865
6158.496094	-35.903976
6201.562500	-35.942356
6244.628906	-35.858627
6287.695312	-35.939911
6330.761719	-35.958988
6373.828125	-35.795937
6416.894531	-35.724976
6459.960938	-35.769913
6503.027344	-35.930504
6546.093750	-36.600292
6589.160156	-36.621536
6632.226562	-36.803364
6675.292969	-36.690018
6718.359375	-36.757046
6761.425781	-37.186977
6804.492188	-36.665653
6847.558594	-36.479515
6890.625000	-36.639977
6933.691406	-36.594971
6976.757812	-36.318317
7019.824219	-36.727505
7062.890625	-37.411072
7105.957031	-37.585735
7149.023438	-37.632915
7192.089844	-37.388885
7235.156250	-37.203613
7278.222656	-37.351097
7321.289062	-37.329124
7364.355469	-36.921589
7407.421875	-37.400585
7450.488281	-37.464878
7493.554688	-37.796623
7536.621094	-38.426144
7579.687500	-38.374798
7622.753906	-38.270866
7665.820312	-38.007946
7708.886719	-37.814034
7751.953125	-37.626431
7795.019531	-37.940506
7838.085938	-37.786255
7881.152344	-38.006298
7924.218750	-38.037071
7967.285156	-38.477352
8010.351562	-38.845901
8053.417969	-38.543030
8096.484375	-38.459980
8139.550781	-38.442673
8182.617188	-38.505428
8225.683594	-38.631374
8268.750000	-38.702118
8311.816406	-38.644859
8354.882812	-38.513741
8397.949219	-38.545212
8441.015625	-39.150181
8484.082031	-39.174088
8527.148438	-39.173828
8570.214844	-39.105644
8613.281250	-38.895363
8656.347656	-38.864563
8699.414062	-39.056702
8742.480469	-39.630322
8785.546875	-38.777367
8828.613281	-38.626350
8871.679688	-39.276531
8914.746094	-39.415569
8957.812500	-39.521351
9000.878906	-39.716579
9043.945312	-39.423218
9087.011719	-39.318302
9130.078125	-39.525578
9173.144531	-39.749931
9216.210938	-39.804928
9259.277344	-39.858589
9302.343750	-39.655849
9345.410156	-40.146000
9388.476562	-40.157078
9431.542969	-39.726295
9474.609375	-39.589458
9517.675781	-39.548752
9560.742188	-40.019672
9603.808594	-40.368637
9646.875000	-40.816940
9689.941406	-40.199234
9733.007812	-40.166336
9776.074219	-40.449669
9819.140625	-40.413025
9862.207031	-40.387806
9905.273438	-40.260529
9948.339844	-40.328041
9991.406250	-40.989475
10034.472656	-40.941364
10077.539062	-40.336529
10120.605469	-40.053844
10163.671875	-40.822311
10206.738281	-41.131954
10249.804688	-40.946480
10292.871094	-40.900829
10335.937500	-40.901264
10379.003906	-41.075706
10422.070312	-40.967899
10465.136719	-40.671406
10508.203125	-40.847149
10551.269531	-41.370457
10594.335938	-41.369789
10637.402344	-41.390404
10680.468750	-41.355301
10723.535156	-41.194851
10766.601562	-41.494057
10809.667969	-41.441700
10852.734375	-41.096252
10895.800781	-41.291733
10938.867188	-41.560802
10981.933594	-41.514244
11025.000000	-41.669479
11068.066406	-41.932137
11111.132812	-41.879822
11154.199219	-41.737099
11197.265625	-42.008682
11240.332031	-41.996708
11283.398438	-41.735840
11326.464844	-41.502506
11369.531250	-41.837509
11412.597656	-42.145584
11455.664062	-41.989532
11498.730469	-42.143044
11541.796875	-42.257984
11584.863281	-42.089123
11627.929688	-42.139294
11670.996094	-42.260536
11714.062500	-42.327038
11757.128906	-42.076515
11800.195312	-42.300716
11843.261719	-42.495098
11886.328125	-42.456848
11929.394531	-42.850391
11972.460938	-42.784111
12015.527344	-42.521202
12058.593750	-42.621872
12101.660156	-42.172417
12144.726562	-42.522892
12187.792969	-42.923283
12230.859375	-42.876381
12273.925781	-43.115681
12316.992188	-43.317383
12360.058594	-42.995361
12403.125000	-43.051655
12446.191406	-42.891285
12489.257812	-43.149151
12532.324219	-43.381409
12575.390625	-43.283657
12618.457031	-43.044331
12661.523438	-43.306141
12704.589844	-42.706059
12747.656250	-42.857216
12790.722656	-43.370472
12833.789062	-43.476009
12876.855469	-43.477257
12919.921875	-43.345329
12962.988281	-43.346291
13006.054688	-43.779095
13049.121094	-43.724739
13092.187500	-43.707539
13135.253906	-43.605572
13178.320312	-43.598675
13221.386719	-43.560459
13264.453125	-44.000278
13307.519531	-43.981594
13350.585938	-43.895390
13393.652344	-43.817272
13436.718750	-43.856667
13479.785156	-44.044102
13522.851562	-43.952076
13565.917969	-43.767059
13608.984375	-44.081345
13652.050781	-44.386749
13695.117188	-44.624443
13738.183594	-44.330799
13781.250000	-44.003593
13824.316406	-43.749340
13867.382812	-43.908989
13910.449219	-44.191895
13953.515625	-44.235527
13996.582031	-44.419613
14039.648438	-44.272320
14082.714844	-44.092350
14125.781250	-44.420719
14168.847656	-44.685932
14211.914062	-44.856461
14254.980469	-44.695999
14298.046875	-44.203560
14341.113281	-44.229782
14384.179688	-44.618843
14427.246094	-44.846558
14470.312500	-44.815460
14513.378906	-44.859615
14556.445312	-44.665043
14599.511719	-44.833897
14642.578125	-45.175865
14685.644531	-45.338669
14728.710938	-45.043930
14771.777344	-45.251450
14814.843750	-45.311157
14857.910156	-44.759296
14900.976562	-44.986526
14944.042969	-45.255665
14987.109375	-45.341656
15030.175781	-45.451782
15073.242188	-45.715427
15116.308594	-45.452873
15159.375000	-45.540916
15202.441406	-45.605171
15245.507812	-45.639843
15288.574219	-45.543221
15331.640625	-45.655952
15374.707031	-45.889595
15417.773438	-45.792225
15460.839844	-45.688374
15503.906250	-45.380924
15546.972656	-45.446022
15590.039062	-45.652103
15633.105469	-46.128212
15676.171875	-45.991558
15719.238281	-46.130753
15762.304688	-46.248451
15805.371094	-46.093636
15848.437500	-45.739929
15891.503906	-45.916649
15934.570312	-45.724102
15977.636719	-45.789150
16020.703125	-45.932705
16063.769531	-46.170593
16106.835938	-46.427162
16149.902344	-46.257828
16192.968750	-46.056801
16236.035156	-46.181824
16279.101562	-45.951698
16322.167969	-46.184227
16365.234375	-46.230209
16408.300781	-46.000462
16451.367188	-46.305855
16494.433594	-46.341129
16537.500000	-46.597725
16580.566406	-46.484943
16623.632812	-46.274742
16666.699219	-46.451382
16709.765625	-46.899509
16752.832031	-46.772812
16795.898438	-46.514423
16838.964844	-46.462681
16882.031250	-46.569702
16925.097656	-46.844528
16968.164062	-46.682087
17011.230469	-46.541019
17054.296875	-46.486465
17097.363281	-47.246563
17140.429688	-47.377914
17183.496094	-47.338989
17226.562500	-47.164097
17269.628906	-46.979736
17312.695312	-47.022629
17355.761719	-46.994705
17398.828125	-46.974308
17441.894531	-46.677650
17484.960938	-46.688503
17528.027344	-46.942238
17571.093750	-47.343037
17614.160156	-46.958511
17657.226562	-47.149899
17700.292969	-47.634369
17743.359375	-47.838596
17786.425781	-47.575191
17829.492188	-47.109108
17872.558594	-47.302841
17915.625000	-47.733017
17958.691406	-47.802479
18001.757812	-47.606537
18044.824219	-47.423317
18087.890625	-47.551414
18130.957031	-47.571865
18174.023438	-47.411015
18217.089844	-47.517159
18260.156250	-47.584351
18303.222656	-47.726772
18346.289062	-47.875744
18389.355469	-47.894512
18432.421875	-47.472027
18475.488281	-47.598057
18518.554688	-48.075771
18561.621094	-48.160763
18604.687500	-48.008278
18647.753906	-48.068821
18690.820312	-48.411396
18733.886719	-48.500519
18776.953125	-48.084282
18820.019531	-47.918133
18863.085938	-47.527279
18906.152344	-47.561634
18949.218750	-48.120106
18992.285156	-48.159714
19035.351562	-47.878647
19078.417969	-47.998470
19121.484375	-48.173168
19164.550781	-47.981186
19207.617188	-48.003002
19250.683594	-48.223965
19293.750000	-48.008961
19336.816406	-48.293976
19379.882812	-48.754349
19422.949219	-48.388668
19466.015625	-47.928143
19509.082031	-48.277687
19552.148438	-48.262310
19595.214844	-48.614037
19638.281250	-49.097298
19681.347656	-48.583038
19724.414062	-48.140068
19767.480469	-48.300232
19810.546875	-48.836643
19853.613281	-49.254105
19896.679688	-48.864391
19939.746094	-48.303703
19982.812500	-48.323292
20025.878906	-48.590214
20068.945312	-48.787834
20112.011719	-48.512684
20155.078125	-48.849079
20198.144531	-49.306889
20241.210938	-49.101643
20284.277344	-48.708836
20327.343750	-49.122650
20370.410156	-48.694016
20413.476562	-48.618759
20456.542969	-48.997723
20499.609375	-49.113888
20542.675781	-49.395096
20585.742188	-49.324589
20628.808594	-49.491714
20671.875000	-49.516701
20714.941406	-49.267929
20758.007812	-49.422215
20801.074219	-49.409569
20844.140625	-49.840107
20887.207031	-49.824692
20930.273438	-49.676971
20973.339844	-49.410084
21016.406250	-49.589050
21059.472656	-49.773388
21102.539062	-49.734447
21145.605469	-50.088329
21188.671875	-49.747025
21231.738281	-49.749950
21274.804688	-49.918076
21317.871094	-50.072903
21360.937500	-49.918522
21404.003906	-50.079475
21447.070312	-50.058041
21490.136719	-50.569668
21533.203125	-50.954357
21576.269531	-51.179531
21619.335938	-50.915939
21662.402344	-51.041069
21705.468750	-51.701328
21748.535156	-52.078815
21791.601562	-51.798492
21834.667969	-52.095516
21877.734375	-52.711525
21920.800781	-53.807556
21963.867188	-54.724300
22006.933594	-55.057545
