Frequency (Hz)	Level (dB)
43.066406	-22.604002
86.132812	-19.799202
129.199219	-16.439705
172.265625	-16.142250
215.332031	-16.558771
258.398438	-16.624613
301.464844	-16.642714
344.531250	-16.663219
387.597656	-16.755383
430.664062	-16.910030
473.730469	-17.049173
516.796875	-17.227734
559.863281	-17.269402
602.929688	-17.015936
645.996094	-17.203777
689.062500	-17.776043
732.128906	-17.682682
775.195312	-17.996714
818.261719	-18.103205
861.328125	-18.278450
904.394531	-18.765200
947.460938	-18.873241
990.527344	-18.843439
1033.593750	-18.872583
1076.660156	-18.941498
1119.726562	-19.204283
1162.792969	-19.426659
1205.859375	-19.490818
1248.925781	-19.641176
1291.992188	-20.018867
1335.058594	-20.108280
1378.125000	-19.821598
1421.191406	-20.152227
1464.257812	-20.477619
1507.324219	-20.415813
1550.390625	-20.506481
1593.457031	-20.625317
1636.523438	-20.808311
1679.589844	-20.770569
1722.656250	-20.762503
1765.722656	-20.900316
1808.789062	-21.120905
1851.855469	-21.230902
1894.921875	-21.543137
1937.988281	-21.589333
1981.054688	-21.601898
2024.121094	-21.675823
2067.187500	-21.589911
2110.253906	-21.779509
2153.320312	-21.788479
2196.386719	-21.927824
2239.453125	-21.871311
2282.519531	-21.768829
2325.585938	-21.830833
2368.652344	-22.084824
2411.718750	-22.317511
2454.785156	-22.531275
2497.851562	-22.505455
2540.917969	-22.474472
2583.984375	-22.540524
2627.050781	-22.640755
2670.117188	-22.775721
2713.183594	-22.737818
2756.250000	-22.878466
2799.316406	-22.834084
2842.382812	-22.971821
2885.449219	-23.023836
2928.515625	-22.941479
2971.582031	-23.209642
3014.648438	-23.555826
3057.714844	-23.398159
3100.781250	-23.218742
3143.847656	-23.347202
3186.914062	-23.160391
3229.980469	-23.221733
3273.046875	-23.619001
3316.113281	-23.585018
3359.179688	-23.658466
3402.246094	-23.832243
3445.312500	-23.819031
3488.378906	-24.016617
3531.445312	-24.026709
3574.511719	-24.045582
3617.578125	-24.295425
3660.644531	-23.991430
3703.710938	-23.966122
3746.777344	-24.241133
3789.843750	-24.408445
3832.910156	-24.398539
3875.976562	-24.249235
3919.042969	-24.503656
3962.109375	-24.560152
4005.175781	-24.550745
4048.242188	-24.671841
4091.308594	-24.686552
4134.375000	-24.538225
4177.441406	-24.536852
4220.507812	-24.704985
4263.574219	-24.692959
4306.640625	-24.877693
4349.707031	-24.878876
4392.773438	-24.909168
4435.839844	-25.140190
4478.906250	-25.148760
4521.972656	-25.273321
4565.039062	-25.239786
4608.105469	-25.148197
4651.171875	-25.342873
4694.238281	-25.353203
4737.304688	-25.077034
4780.371094	-24.962469
4823.437500	-25.126480
4866.503906	-25.492958
4909.570312	-25.647217
4952.636719	-25.409309
4995.703125	-25.558279
5038.769531	-25.809227
5081.835938	-25.637777
5124.902344	-25.762089
5167.968750	-25.767900
5211.035156	-25.641275
5254.101562	-25.783480
5297.167969	-25.892857
5340.234375	-25.776831
5383.300781	-25.931795
5426.367188	-26.128836
5469.433594	-26.153366
5512.500000	-26.197214
5555.566406	-26.109276
5598.632812	-26.019079
5641.699219	-25.963181
5684.765625	-26.020203
5727.832031	-26.112247
5770.898438	-26.413103
5813.964844	-26.427229
5857.031250	-26.413275
5900.097656	-26.479181
5943.164062	-26.224674
5986.230469	-26.345749
6029.296875	-26.465155
6072.363281	-26.632271
6115.429688	-26.510626
6158.496094	-26.393564
6201.562500	-26.506945
6244.628906	-26.561768
6287.695312	-26.572683
6330.761719	-26.700253
6373.828125	-26.567661
6416.894531	-26.419538
6459.960938	-26.394552
6503.027344	-26.696692
6546.093750	-26.950994
6589.160156	-27.057320
6632.226562	-27.347862
6675.292969	-27.196163
6718.359375	-27.105064
6761.425781	-27.167910
6804.492188	-27.234486
6847.558594	-26.913122
6890.625000	-27.124804
6933.691406	-27.114014
6976.757812	-26.950079
7019.824219	-27.115566
7062.890625	-27.372364
7105.957031	-27.499063
7149.023438	-27.424105
7192.089844	-27.504324
7235.156250	-27.371101
7278.222656	-27.294792
7321.289062	-27.493515
7364.355469	-27.547314
7407.421875	-27.657288
7450.488281	-27.555094
7493.554688	-27.762030
7536.621094	-27.719000
7579.687500	-27.651428
7622.753906	-27.890242
7665.820312	-27.887230
7708.886719	-27.903288
7751.953125	-27.756128
7795.019531	-27.732853
7838.085938	-27.712107
7881.152344	-27.665152
7924.218750	-27.785192
7967.285156	-28.068483
8010.351562	-28.057154
8053.417969	-28.006302
8096.484375	-28.064827
8139.550781	-27.901836
8182.617188	-27.875065
8225.683594	-27.878279
8268.750000	-28.201977
8311.816406	-28.019760
8354.882812	-28.072159
8397.949219	-28.310732
8441.015625	-28.418348
8484.082031	-28.371027
8527.148438	-28.452940
8570.214844	-28.487900
8613.281250	-28.320286
8656.347656	-28.278072
8699.414062	-28.397245
8742.480469	-28.606281
8785.546875	-28.235489
8828.613281	-28.271416
8871.679688	-28.649942
8914.746094	-28.685896
8957.812500	-28.704567
9000.878906	-28.722679
9043.945312	-28.617884
9087.011719	-28.654991
9130.078125	-28.743603
9173.144531	-28.680319
9216.210938	-28.762846
9259.277344	-28.751160
9302.343750	-28.773947
9345.410156	-28.844303
9388.476562	-28.834961
9431.542969	-28.749195
9474.609375	-28.724339
9517.675781	-28.769892
9560.742188	-28.823015
9603.808594	-28.928358
9646.875000	-29.327202
9689.941406	-29.280943
9733.007812	-29.098703
9776.074219	-29.082552
9819.140625	-29.255650
9862.207031	-29.151230
9905.273438	-29.132574
9948.339844	-29.068848
9991.406250	-29.282576
10034.472656	-29.188683
10077.539062	-28.931120
10120.605469	-29.034403
10163.671875	-29.275023
10206.738281	-29.466431
10249.804688	-29.493607
10292.871094	-29.198910
10335.937500	-29.188683
10379.003906	-29.369270
10422.070312	-29.261955
10465.136719	-29.298676
10508.203125	-29.192131
10551.269531	-29.352430
10594.335938	-29.477329
10637.402344	-29.559050
10680.468750	-29.701714
10723.535156	-29.597525
10766.601562	-29.669018
10809.667969	-29.742323
10852.734375	-29.472208
10895.800781	-29.692019
10938.867188	-29.670408
10981.933594	-29.759041
11025.000000	-29.763355
11068.066406	-29.737408
11111.132812	-29.645391
11154.199219	-29.760967
11197.265625	-29.921812
11240.332031	-29.863264
11283.398438	-29.679619
11326.464844	-29.650354
11369.531250	-29.801790
11412.597656	-29.945908
11455.664062	-29.894241
11498.730469	-29.950624
11541.796875	-29.927719
11584.863281	-30.107449
11627.929688	-30.145588
11670.996094	-30.455523
11714.062500	-30.066814
11757.128906	-30.030180
11800.195312	-30.186617
11843.261719	-30.184748
11886.328125	-29.944139
11929.394531	-30.091084
11972.460938	-30.379250
12015.527344	-30.305258
12058.593750	-30.242809
12101.660156	-30.095064
12144.726562	-30.111336
12187.792969	-30.216789
12230.859375	-30.419128
12273.925781	-30.369497
12316.992188	-30.448101
12360.058594	-30.511147
12403.125000	-30.348989
12446.191406	-30.382318
12489.257812	-30.567589
12532.324219	-30.669039
12575.390625	-30.821907
12618.457031	-30.821165
12661.523438	-30.691936
12704.589844	-30.533264
12747.656250	-30.581200
12790.722656	-30.859581
12833.789062	-30.928926
12876.855469	-30.723429
12919.921875	-30.670567
12962.988281	-30.791510
13006.054688	-30.948999
13049.121094	-31.058342
13092.187500	-31.021959
13135.253906	-30.791889
13178.320312	-31.020458
13221.386719	-30.984327
13264.453125	-30.953585
13307.519531	-30.979376
13350.585938	-30.755749
13393.652344	-30.756554
13436.718750	-31.099169
13479.785156	-31.164124
13522.851562	-31.110630
13565.917969	-31.172699
13608.984375	-31.141888
13652.050781	-31.296612
13695.117188	-31.473240
13738.183594	-31.325550
13781.250000	-31.254089
13824.316406	-31.164307
13867.382812	-31.265333
13910.449219	-31.514889
13953.515625	-31.435743
13996.582031	-31.358604
14039.648438	-31.332609
14082.714844	-31.441769
14125.781250	-31.356537
14168.847656	-31.478918
14211.914062	-31.633926
14254.980469	-31.624859
14298.046875	-31.382086
14341.113281	-31.436312
14384.179688	-31.401007
14427.246094	-31.513069
14470.312500	-31.678123
14513.378906	-31.413143
14556.445312	-31.443199
14599.511719	-31.590872
14642.578125	-31.433243
14685.644531	-31.844896
14728.710938	-31.928318
14771.777344	-31.947796
14814.843750	-32.013157
14857.910156	-31.749859
14900.976562	-31.535824
14944.042969	-31.727297
14987.109375	-31.815678
15030.175781	-31.940897
15073.242188	-32.075001
15116.308594	-32.033405
15159.375000	-31.854267
15202.441406	-31.705095
15245.507812	-31.940741
15288.574219	-32.030792
15331.640625	-32.086098
15374.707031	-32.145409
15417.773438	-32.138176
15460.839844	-32.082569
15503.906250	-32.171333
15546.972656	-32.212238
15590.039062	-32.300686
15633.105469	-32.417854
15676.171875	-32.139160
15719.238281	-32.251579
15762.304688	-32.481228
15805.371094	-32.527229
15848.437500	-32.475445
15891.503906	-32.312355
15934.570312	-32.276127
15977.636719	-32.262009
16020.703125	-32.522614
16063.769531	-32.635605
16106.835938	-32.498924
16149.902344	-32.365448
16192.968750	-32.436462
16236.035156	-32.485771
16279.101562	-32.445694
16322.167969	-32.351242
16365.234375	-32.366230
16408.300781	-32.319233
16451.367188	-32.454941
16494.433594	-32.406178
16537.500000	-32.644001
16580.566406	-32.803394
16623.632812	-32.692032
16666.699219	-32.703827
16709.765625	-32.786648
16752.832031	-32.787380
16795.898438	-32.799011
16838.964844	-32.607052
16882.031250	-32.658993
16925.097656	-32.950222
16968.164062	-32.819363
17011.230469	-32.678288
17054.296875	-32.983170
17097.363281	-33.367569
17140.429688	-32.933842
17183.496094	-32.922100
17226.562500	-33.093311
17269.628906	-33.226631
17312.695312	-33.234699
17355.761719	-33.144051
17398.828125	-33.107155
17441.894531	-33.028339
17484.960938	-32.973179
17528.027344	-32.994335
17571.093750	-33.025837
17614.160156	-33.180557
17657.226562	-33.235756
17700.292969	-33.371273
17743.359375	-33.638550
17786.425781	-33.627876
17829.492188	-33.384296
17872.558594	-33.485344
17915.625000	-33.751991
17958.691406	-33.665340
18001.757812	-33.694347
18044.824219	-33.633591
18087.890625	-33.506660
18130.957031	-33.581486
18174.023438	-33.821064
18217.089844	-33.834599
18260.156250	-33.978680
18303.222656	-34.066387
18346.289062	-34.016899
18389.355469	-34.267281
18432.421875	-33.966255
18475.488281	-33.929974
18518.554688	-34.073212
18561.621094	-33.891407
18604.687500	-33.898994
18647.753906	-34.038300
18690.820312	-34.304871
18733.886719	-34.253574
18776.953125	-34.170647
18820.019531	-34.307041
18863.085938	-34.038727
18906.152344	-33.989521
18949.218750	-34.243416
18992.285156	-34.248337
19035.351562	-34.188358
19078.417969	-34.280445
19121.484375	-34.248196
19164.550781	-34.275909
19207.617188	-34.313080
19250.683594	-34.394676
19293.750000	-34.457363
19336.816406	-34.642151
19379.882812	-34.784523
19422.949219	-34.613235
19466.015625	-34.620487
19509.082031	-34.465080
19552.148438	-34.370445
19595.214844	-34.702663
19638.281250	-34.847412
19681.347656	-34.704685
19724.414062	-34.355686
19767.480469	-34.530746
19810.546875	-34.924305
19853.613281	-34.964424
19896.679688	-35.012146
19939.746094	-34.818222
19982.812500	-34.736408
20025.878906	-34.555466
20068.945312	-34.857742
20112.011719	-35.021320
20155.078125	-35.024837
20198.144531	-35.338112
20241.210938	-35.190708
20284.277344	-35.064041
20327.343750	-35.165012
20370.410156	-35.177814
20413.476562	-35.152256
20456.542969	-35.258076
20499.609375	-35.227726
20542.675781	-35.392818
20585.742188	-35.634617
20628.808594	-35.839172
20671.875000	-35.687939
20714.941406	-35.558971
20758.007812	-35.540901
20801.074219	-35.527420
20844.140625	-35.711952
20887.207031	-35.932350
20930.273438	-35.776531
20973.339844	-35.905109
21016.406250	-36.067474
21059.472656	-35.902058
21102.539062	-36.043259
21145.605469	-36.340820
21188.671875	-36.309471
21231.738281	-36.085091
21274.804688	-36.201469
21317.871094	-36.360397
21360.937500	-36.127110
21404.003906	-36.382523
21447.070312	-36.469521
21490.136719	-36.484844
21533.203125	-36.627644
21576.269531	-36.873333
21619.335938	-36.657108
21662.402344	-36.944805
21705.468750	-37.065815
21748.535156	-37.089634
21791.601562	-37.164860
21834.667969	-37.263317
21877.734375	-37.413254
21920.800781	-37.770653
21963.867188	-38.099842
22006.933594	-38.260090
