Frequency (Hz)	Level (dB)
43.066406	-16.955635
86.132812	-27.826490
129.199219	-26.313507
172.265625	-25.237747
215.332031	-24.532476
258.398438	-23.741543
301.464844	-23.389109
344.531250	-22.877289
387.597656	-22.167803
430.664062	-21.419331
473.730469	-21.329248
516.796875	-21.286955
559.863281	-20.848442
602.929688	-20.389114
645.996094	-20.033773
689.062500	-20.151413
732.128906	-20.148321
775.195312	-19.877048
818.261719	-19.732595
861.328125	-19.769121
904.394531	-19.813663
947.460938	-19.605473
990.527344	-19.473856
1033.593750	-19.536272
1076.660156	-19.241188
1119.726562	-18.924805
1162.792969	-18.954821
1205.859375	-19.441542
1248.925781	-19.382698
1291.992188	-19.625813
1335.058594	-19.260931
1378.125000	-18.914762
1421.191406	-19.051907
1464.257812	-19.406813
1507.324219	-19.169409
1550.390625	-19.026310
1593.457031	-19.298037
1636.523438	-19.358316
1679.589844	-19.324562
1722.656250	-18.918457
1765.722656	-19.049755
1808.789062	-19.658638
1851.855469	-19.546385
1894.921875	-19.802692
1937.988281	-19.471882
1981.054688	-19.310917
2024.121094	-19.181696
2067.187500	-19.177259
2110.253906	-19.019918
2153.320312	-19.386395
2196.386719	-19.434160
2239.453125	-18.792633
2282.519531	-19.107113
2325.585938	-19.261810
2368.652344	-19.426046
2411.718750	-19.653332
2454.785156	-19.899185
2497.851562	-19.629887
2540.917969	-19.535341
2583.984375	-19.837086
2627.050781	-19.981815
2670.117188	-19.518950
2713.183594	-19.377117
2756.250000	-19.633720
2799.316406	-19.855549
2842.382812	-20.059347
2885.449219	-20.068205
2928.515625	-19.672953
2971.582031	-20.086977
3014.648438	-20.254642
3057.714844	-19.881432
3100.781250	-19.596476
3143.847656	-19.449078
3186.914062	-19.801390
3229.980469	-20.284090
3273.046875	-19.975449
3316.113281	-19.666203
3359.179688	-20.304171
3402.246094	-20.470232
3445.312500	-20.343016
3488.378906	-20.278578
3531.445312	-20.345808
3574.511719	-20.290361
3617.578125	-20.426277
3660.644531	-20.231537
3703.710938	-20.334612
3746.777344	-20.417818
3789.843750	-20.082838
3832.910156	-20.551716
3875.976562	-20.559011
3919.042969	-20.696903
3962.109375	-20.675192
4005.175781	-21.016714
4048.242188	-21.382484
4091.308594	-21.098976
4134.375000	-20.856680
4177.441406	-20.903135
4220.507812	-21.167437
4263.574219	-21.165564
4306.640625	-21.405497
4349.707031	-21.434469
4392.773438	-21.290257
4435.839844	-21.229031
4478.906250	-21.198433
4521.972656	-21.271030
4565.039062	-21.472063
4608.105469	-21.648891
4651.171875	-21.614285
4694.238281	-21.699963
4737.304688	-21.380323
4780.371094	-21.420116
4823.437500	-21.305229
4866.503906	-21.358067
4909.570312	-21.635571
4952.636719	-22.058149
4995.703125	-22.112509
5038.769531	-22.175644
5081.835938	-21.630369
5124.902344	-21.625387
5167.968750	-21.706198
5211.035156	-21.820362
5254.101562	-22.032932
5297.167969	-22.051077
5340.234375	-22.140574
5383.300781	-22.102140
5426.367188	-22.210018
5469.433594	-22.461340
5512.500000	-22.295025
5555.566406	-22.056931
5598.632812	-22.083963
5641.699219	-22.411699
5684.765625	-22.228004
5727.832031	-22.400894
5770.898438	-22.606611
5813.964844	-22.732061
5857.031250	-22.826239
5900.097656	-22.922352
5943.164062	-22.404446
5986.230469	-22.511946
6029.296875	-22.684261
6072.363281	-22.934666
6115.429688	-23.081747
6158.496094	-22.977785
6201.562500	-22.977173
6244.628906	-23.141075
6287.695312	-23.305944
6330.761719	-23.407122
6373.828125	-23.076513
6416.894531	-22.790928
6459.960938	-22.701452
6503.027344	-23.317690
6546.093750	-23.754585
6589.160156	-23.875820
6632.226562	-23.935509
6675.292969	-23.610771
6718.359375	-23.601185
6761.425781	-23.575687
6804.492188	-23.871149
6847.558594	-23.637026
6890.625000	-23.813705
6933.691406	-23.545547
6976.757812	-23.515574
7019.824219	-23.657644
7062.890625	-23.858412
7105.957031	-24.264011
7149.023438	-24.185255
7192.089844	-24.183121
7235.156250	-24.193186
7278.222656	-23.997374
7321.289062	-23.833973
7364.355469	-23.805611
7407.421875	-24.495550
7450.488281	-24.396473
7493.554688	-24.291862
7536.621094	-24.458611
7579.687500	-24.657446
7622.753906	-24.695995
7665.820312	-24.516954
7708.886719	-24.460257
7751.953125	-24.040474
7795.019531	-24.402098
7838.085938	-24.419855
7881.152344	-25.012091
7924.218750	-24.963476
7967.285156	-25.003572
8010.351562	-25.120815
8053.417969	-25.108727
8096.484375	-24.986044
8139.550781	-24.958719
8182.617188	-25.116470
8225.683594	-25.269878
8268.750000	-25.591051
8311.816406	-25.117714
8354.882812	-25.164968
8397.949219	-25.374550
8441.015625	-25.718691
8484.082031	-25.612738
8527.148438	-25.581484
8570.214844	-25.657829
8613.281250	-25.823027
8656.347656	-25.822542
8699.414062	-25.511906
8742.480469	-26.028456
8785.546875	-25.729427
8828.613281	-25.345821
8871.679688	-26.017300
8914.746094	-26.205593
8957.812500	-26.320110
9000.878906	-26.275513
9043.945312	-26.352537
9087.011719	-26.048628
9130.078125	-25.859198
9173.144531	-25.927803
9216.210938	-26.612211
9259.277344	-26.956215
9302.343750	-26.574266
9345.410156	-26.418917
9388.476562	-26.415380
9431.542969	-26.193604
9474.609375	-25.894514
9517.675781	-26.114546
9560.742188	-26.439915
9603.808594	-26.861307
9646.875000	-27.197527
9689.941406	-27.001419
9733.007812	-26.580145
9776.074219	-26.905054
9819.140625	-27.386187
9862.207031	-27.050571
9905.273438	-26.635872
9948.339844	-26.744240
9991.406250	-26.908669
10034.472656	-26.565434
10077.539062	-26.765604
10120.605469	-26.944263
10163.671875	-26.951355
10206.738281	-27.285574
10249.804688	-27.525925
10292.871094	-27.532837
10335.937500	-27.597254
10379.003906	-27.473911
10422.070312	-27.187248
10465.136719	-27.429304
10508.203125	-27.222759
10551.269531	-27.460749
10594.335938	-27.574436
10637.402344	-27.791594
10680.468750	-27.458263
10723.535156	-27.545881
10766.601562	-28.163099
10809.667969	-28.168425
10852.734375	-27.680319
10895.800781	-28.189169
10938.867188	-28.005653
10981.933594	-28.073141
11025.000000	-28.048307
11068.066406	-28.288898
11111.132812	-28.065165
11154.199219	-28.065016
11197.265625	-28.408583
11240.332031	-28.300926
11283.398438	-28.156384
11326.464844	-28.436138
11369.531250	-28.428116
11412.597656	-28.516211
11455.664062	-28.771091
11498.730469	-28.366932
11541.796875	-28.352074
11584.863281	-28.628916
11627.929688	-28.768297
11670.996094	-28.980827
11714.062500	-28.490644
11757.128906	-28.998871
11800.195312	-28.985716
11843.261719	-29.194405
11886.328125	-28.941895
11929.394531	-29.145496
11972.460938	-28.911497
12015.527344	-29.198553
12058.593750	-29.107933
12101.660156	-29.074192
12144.726562	-29.269114
12187.792969	-29.325014
12230.859375	-29.643242
12273.925781	-29.368368
12316.992188	-29.235268
12360.058594	-29.144541
12403.125000	-29.360355
12446.191406	-29.589464
12489.257812	-29.624388
12532.324219	-29.995869
12575.390625	-29.914999
12618.457031	-30.183189
12661.523438	-29.733253
12704.589844	-29.368607
12747.656250	-29.635727
12790.722656	-29.966982
12833.789062	-29.763285
12876.855469	-29.562464
12919.921875	-29.798227
12962.988281	-29.890203
13006.054688	-30.092010
13049.121094	-30.697641
13092.187500	-30.763409
13135.253906	-30.753504
13178.320312	-30.248581
13221.386719	-30.374470
13264.453125	-30.645136
13307.519531	-30.926126
13350.585938	-30.594654
13393.652344	-30.372133
13436.718750	-30.406050
13479.785156	-30.637581
13522.851562	-30.907093
13565.917969	-31.294485
13608.984375	-31.007782
13652.050781	-31.044827
13695.117188	-31.026503
13738.183594	-30.924826
13781.250000	-30.862953
13824.316406	-31.231741
13867.382812	-31.263832
13910.449219	-31.239319
13953.515625	-31.201302
13996.582031	-31.081875
14039.648438	-30.666815
14082.714844	-31.124954
14125.781250	-31.108496
14168.847656	-31.300323
14211.914062	-31.444118
14254.980469	-31.305397
14298.046875	-31.231649
14341.113281	-31.795069
14384.179688	-31.954388
14427.246094	-31.739450
14470.312500	-31.705217
14513.378906	-31.445311
14556.445312	-31.664047
14599.511719	-31.800653
14642.578125	-31.416384
14685.644531	-31.817368
14728.710938	-31.862650
14771.777344	-32.167130
14814.843750	-32.300385
14857.910156	-32.072468
14900.976562	-32.016670
14944.042969	-32.084412
14987.109375	-32.528847
15030.175781	-32.909313
15073.242188	-32.586216
15116.308594	-32.295036
15159.375000	-32.215199
15202.441406	-32.308685
15245.507812	-32.660027
15288.574219	-32.730270
15331.640625	-32.589123
15374.707031	-32.517704
15417.773438	-32.658283
15460.839844	-32.459126
15503.906250	-32.577259
15546.972656	-32.923431
15590.039062	-32.832676
15633.105469	-33.249432
15676.171875	-33.223583
15719.238281	-33.337837
15762.304688	-33.503288
15805.371094	-33.444954
15848.437500	-33.749733
15891.503906	-33.658150
15934.570312	-33.244877
15977.636719	-33.124641
16020.703125	-33.234364
16063.769531	-33.197956
16106.835938	-33.573120
16149.902344	-33.593151
16192.968750	-33.987492
16236.035156	-33.953564
16279.101562	-33.794384
16322.167969	-33.666962
16365.234375	-33.445480
16408.300781	-33.514015
16451.367188	-33.545174
16494.433594	-33.649673
16537.500000	-33.968273
16580.566406	-33.877033
16623.632812	-33.762798
16666.699219	-33.940712
16709.765625	-34.573086
16752.832031	-34.613625
16795.898438	-34.457954
16838.964844	-33.927620
16882.031250	-34.014774
16925.097656	-34.430023
16968.164062	-34.190208
17011.230469	-34.135754
17054.296875	-34.674107
17097.363281	-35.278584
17140.429688	-35.035583
17183.496094	-34.852760
17226.562500	-34.820297
17269.628906	-34.704052
17312.695312	-34.411541
17355.761719	-34.542873
17398.828125	-34.621975
17441.894531	-34.802124
17484.960938	-35.043030
17528.027344	-35.274776
17571.093750	-34.989586
17614.160156	-34.983051
17657.226562	-35.042114
17700.292969	-35.359554
17743.359375	-35.528957
17786.425781	-35.460983
17829.492188	-35.344162
17872.558594	-35.623482
17915.625000	-35.832420
17958.691406	-35.456402
18001.757812	-35.250751
18044.824219	-35.551689
18087.890625	-35.591381
18130.957031	-35.800011
18174.023438	-35.722599
18217.089844	-35.644745
18260.156250	-36.082935
18303.222656	-36.358677
18346.289062	-36.418751
18389.355469	-36.897972
18432.421875	-36.546001
18475.488281	-36.315578
18518.554688	-36.616219
18561.621094	-36.720921
18604.687500	-36.518822
18647.753906	-36.841618
18690.820312	-37.167442
18733.886719	-36.945629
18776.953125	-36.987675
18820.019531	-37.092300
18863.085938	-36.789677
18906.152344	-36.802631
18949.218750	-37.088417
18992.285156	-36.840324
19035.351562	-36.672710
19078.417969	-36.987873
19121.484375	-36.948963
19164.550781	-37.232273
19207.617188	-37.203663
19250.683594	-37.252365
19293.750000	-37.486668
19336.816406	-37.637058
19379.882812	-37.963879
19422.949219	-37.910294
19466.015625	-38.023621
19509.082031	-37.593899
19552.148438	-37.551586
19595.214844	-38.038521
19638.281250	-38.180885
19681.347656	-37.836361
19724.414062	-37.812111
19767.480469	-38.035126
19810.546875	-38.150455
19853.613281	-38.429272
19896.679688	-38.564568
19939.746094	-38.464214
19982.812500	-38.667217
20025.878906	-38.579021
20068.945312	-38.588722
20112.011719	-38.816723
20155.078125	-38.905876
20198.144531	-39.187122
20241.210938	-39.175747
20284.277344	-39.258926
20327.343750	-39.050129
20370.410156	-39.334667
20413.476562	-39.476330
20456.542969	-39.434052
20499.609375	-39.348473
20542.675781	-39.774796
20585.742188	-39.800167
20628.808594	-39.711040
20671.875000	-39.653008
20714.941406	-39.747871
20758.007812	-40.052921
20801.074219	-39.693817
20844.140625	-39.988926
20887.207031	-40.648407
20930.273438	-40.731857
20973.339844	-40.832954
21016.406250	-40.808384
21059.472656	-40.637909
21102.539062	-40.550289
21145.605469	-40.769569
21188.671875	-41.026375
21231.738281	-40.939884
21274.804688	-41.024223
21317.871094	-40.851086
21360.937500	-40.789776
21404.003906	-41.123226
21447.070312	-41.425320
21490.136719	-41.468567
21533.203125	-41.382187
21576.269531	-41.261917
21619.335938	-40.804901
21662.402344	-41.313503
21705.468750	-41.840099
21748.535156	-41.536674
21791.601562	-41.492542
21834.667969	-41.388077
21877.734375	-41.511616
21920.800781	-41.846867
21963.867188	-41.779671
22006.933594	-41.317249
