Frequency (Hz)	Level (dB)
43.066406	-31.888266
86.132812	-27.646099
129.199219	-25.825178
172.265625	-25.025885
215.332031	-24.258121
258.398438	-23.656982
301.464844	-23.216881
344.531250	-23.164705
387.597656	-22.937828
430.664062	-22.695440
473.730469	-22.621908
516.796875	-22.890932
559.863281	-23.023472
602.929688	-22.873260
645.996094	-22.807642
689.062500	-23.201696
732.128906	-23.460979
775.195312	-23.601473
818.261719	-23.840097
861.328125	-24.117401
904.394531	-24.335518
947.460938	-24.270405
990.527344	-24.161760
1033.593750	-24.546572
1076.660156	-24.534601
1119.726562	-24.561186
1162.792969	-24.830490
1205.859375	-25.394978
1248.925781	-25.983994
1291.992188	-26.257895
1335.058594	-25.827915
1378.125000	-25.980455
1421.191406	-26.276720
1464.257812	-26.748472
1507.324219	-26.522835
1550.390625	-26.509829
1593.457031	-26.839857
1636.523438	-27.084198
1679.589844	-27.091717
1722.656250	-26.921246
1765.722656	-27.449020
1808.789062	-27.779854
1851.855469	-27.936127
1894.921875	-28.232052
1937.988281	-28.312599
1981.054688	-28.345060
2024.121094	-28.054043
2067.187500	-28.264605
2110.253906	-28.517221
2153.320312	-28.578266
2196.386719	-28.665007
2239.453125	-28.387968
2282.519531	-28.568113
2325.585938	-28.827810
2368.652344	-28.867428
2411.718750	-29.429417
2454.785156	-29.853563
2497.851562	-29.582373
2540.917969	-29.422668
2583.984375	-29.825975
2627.050781	-30.105850
2670.117188	-29.921804
2713.183594	-29.690231
2756.250000	-29.950731
2799.316406	-30.182753
2842.382812	-30.306648
2885.449219	-30.351879
2928.515625	-30.138504
2971.582031	-30.710911
3014.648438	-30.914602
3057.714844	-30.530464
3100.781250	-30.530354
3143.847656	-30.297079
3186.914062	-30.762480
3229.980469	-31.071417
3273.046875	-30.748102
3316.113281	-30.678795
3359.179688	-31.442595
3402.246094	-31.384361
3445.312500	-31.514782
3488.378906	-31.460255
3531.445312	-31.149290
3574.511719	-31.453238
3617.578125	-31.767033
3660.644531	-31.499830
3703.710938	-31.398870
3746.777344	-31.782793
3789.843750	-31.488274
3832.910156	-31.863905
3875.976562	-31.921150
3919.042969	-32.286549
3962.109375	-32.471951
4005.175781	-32.498734
4048.242188	-32.859711
4091.308594	-32.780907
4134.375000	-32.593601
4177.441406	-32.544445
4220.507812	-32.686901
4263.574219	-32.930565
4306.640625	-33.407047
4349.707031	-33.247570
4392.773438	-33.205204
4435.839844	-33.223747
4478.906250	-32.954060
4521.972656	-33.094162
4565.039062	-33.221485
4608.105469	-33.440048
4651.171875	-33.705208
4694.238281	-33.702618
4737.304688	-33.406281
4780.371094	-33.202702
4823.437500	-33.431503
4866.503906	-33.484707
4909.570312	-33.709602
4952.636719	-34.093376
4995.703125	-34.220413
5038.769531	-34.293476
5081.835938	-33.522213
5124.902344	-33.825081
5167.968750	-34.192921
5211.035156	-34.231979
5254.101562	-34.434891
5297.167969	-34.086178
5340.234375	-34.301083
5383.300781	-34.465305
5426.367188	-34.701794
5469.433594	-34.794514
5512.500000	-34.638226
5555.566406	-34.413631
5598.632812	-34.540615
5641.699219	-34.846519
5684.765625	-34.733841
5727.832031	-34.975811
5770.898438	-35.168880
5813.964844	-35.205811
5857.031250	-35.209755
5900.097656	-35.384354
5943.164062	-35.039001
5986.230469	-35.176086
6029.296875	-35.336147
6072.363281	-35.462490
6115.429688	-35.653465
6158.496094	-35.471149
6201.562500	-35.987614
6244.628906	-35.890770
6287.695312	-35.689449
6330.761719	-35.787354
6373.828125	-35.769524
6416.894531	-35.557396
6459.960938	-35.481857
6503.027344	-35.978432
6546.093750	-36.261917
6589.160156	-36.491028
6632.226562	-36.673195
6675.292969	-36.403122
6718.359375	-36.395382
6761.425781	-36.614376
6804.492188	-36.860207
6847.558594	-36.551506
6890.625000	-36.744717
6933.691406	-36.376431
6976.757812	-36.366508
7019.824219	-36.557423
7062.890625	-36.923794
7105.957031	-37.252098
7149.023438	-37.625050
7192.089844	-37.196396
7235.156250	-37.146770
7278.222656	-36.859669
7321.289062	-36.953331
7364.355469	-36.828346
7407.421875	-37.243248
7450.488281	-37.313499
7493.554688	-37.200928
7536.621094	-37.493149
7579.687500	-37.683678
7622.753906	-37.521702
7665.820312	-37.872242
7708.886719	-37.819336
7751.953125	-37.272953
7795.019531	-37.540691
7838.085938	-37.449112
7881.152344	-38.171936
7924.218750	-38.300644
7967.285156	-38.138908
8010.351562	-38.225994
8053.417969	-38.071415
8096.484375	-38.102436
8139.550781	-38.181217
8182.617188	-38.394932
8225.683594	-38.486797
8268.750000	-38.776508
8311.816406	-38.638012
8354.882812	-38.454567
8397.949219	-38.792889
8441.015625	-39.038799
8484.082031	-38.780140
8527.148438	-39.077206
8570.214844	-38.989944
8613.281250	-39.209812
8656.347656	-39.338200
8699.414062	-38.704109
8742.480469	-39.428867
8785.546875	-38.981239
8828.613281	-38.689514
8871.679688	-39.210396
8914.746094	-39.468998
8957.812500	-39.672607
9000.878906	-39.572624
9043.945312	-39.613159
9087.011719	-39.593048
9130.078125	-39.387314
9173.144531	-39.583317
9216.210938	-40.178448
9259.277344	-40.291195
9302.343750	-39.976746
9345.410156	-39.976223
9388.476562	-40.025566
9431.542969	-39.798809
9474.609375	-39.503311
9517.675781	-39.734158
9560.742188	-40.224255
9603.808594	-40.520992
9646.875000	-40.725700
9689.941406	-40.678871
9733.007812	-40.271347
9776.074219	-40.394966
9819.140625	-40.851345
9862.207031	-40.718628
9905.273438	-40.449833
9948.339844	-40.618389
9991.406250	-40.922318
10034.472656	-40.705956
10077.539062	-40.428127
10120.605469	-40.533436
10163.671875	-40.468216
10206.738281	-40.920803
10249.804688	-41.315666
10292.871094	-41.079941
10335.937500	-41.344978
10379.003906	-41.431320
10422.070312	-41.045971
10465.136719	-41.245159
10508.203125	-41.064896
10551.269531	-41.561012
10594.335938	-41.246243
10637.402344	-41.575226
10680.468750	-41.574867
10723.535156	-41.404663
10766.601562	-41.971886
10809.667969	-41.979050
10852.734375	-41.527401
10895.800781	-41.862240
10938.867188	-41.838291
10981.933594	-41.717278
11025.000000	-41.798405
11068.066406	-41.951538
11111.132812	-42.061047
11154.199219	-42.003647
11197.265625	-42.353756
11240.332031	-42.423489
11283.398438	-42.349857
11326.464844	-42.227158
11369.531250	-42.405384
11412.597656	-42.533291
11455.664062	-42.811550
11498.730469	-42.221790
11541.796875	-42.238026
11584.863281	-42.331490
11627.929688	-42.538300
11670.996094	-42.773548
11714.062500	-42.581276
11757.128906	-42.561565
11800.195312	-42.910782
11843.261719	-43.148014
11886.328125	-43.063786
11929.394531	-43.335785
11972.460938	-43.191113
12015.527344	-43.236240
12058.593750	-42.965504
12101.660156	-43.033218
12144.726562	-43.157173
12187.792969	-43.431278
12230.859375	-43.530296
12273.925781	-43.197865
12316.992188	-43.160286
12360.058594	-43.141876
12403.125000	-43.295097
12446.191406	-43.399799
12489.257812	-43.377277
12532.324219	-43.894817
12575.390625	-44.041153
12618.457031	-44.088551
12661.523438	-44.030399
12704.589844	-43.578255
12747.656250	-43.896263
12790.722656	-44.096233
12833.789062	-43.932133
12876.855469	-44.068733
12919.921875	-44.006008
12962.988281	-44.102936
13006.054688	-44.162323
13049.121094	-44.688881
13092.187500	-45.051540
13135.253906	-44.691410
13178.320312	-44.482578
13221.386719	-44.369148
13264.453125	-44.721016
13307.519531	-44.926693
13350.585938	-44.701859
13393.652344	-44.434322
13436.718750	-44.396713
13479.785156	-44.708687
13522.851562	-45.225166
13565.917969	-45.181679
13608.984375	-45.069118
13652.050781	-44.932446
13695.117188	-45.215042
13738.183594	-45.189922
13781.250000	-45.236237
13824.316406	-45.270336
13867.382812	-45.287277
13910.449219	-45.390121
13953.515625	-45.411983
13996.582031	-45.420876
14039.648438	-44.860207
14082.714844	-45.112045
14125.781250	-45.561058
14168.847656	-45.293907
14211.914062	-45.664856
14254.980469	-45.753193
14298.046875	-45.558838
14341.113281	-46.032078
14384.179688	-46.050014
14427.246094	-46.083275
14470.312500	-45.776043
14513.378906	-45.677311
14556.445312	-45.926994
14599.511719	-45.826962
14642.578125	-45.912792
14685.644531	-45.945896
14728.710938	-46.056892
14771.777344	-46.633209
14814.843750	-46.704140
14857.910156	-46.238548
14900.976562	-46.457840
14944.042969	-46.678841
14987.109375	-47.131405
15030.175781	-47.012741
15073.242188	-47.105564
15116.308594	-46.759701
15159.375000	-46.591686
15202.441406	-46.641163
15245.507812	-47.064911
15288.574219	-46.785618
15331.640625	-46.739803
15374.707031	-46.904423
15417.773438	-46.935551
15460.839844	-47.061893
15503.906250	-47.219379
15546.972656	-47.137260
15590.039062	-47.081799
15633.105469	-47.207268
15676.171875	-47.432262
15719.238281	-47.518452
15762.304688	-47.762108
15805.371094	-47.852139
15848.437500	-47.956398
15891.503906	-47.621323
15934.570312	-47.454311
15977.636719	-47.339039
16020.703125	-47.431759
16063.769531	-47.692757
16106.835938	-48.081963
16149.902344	-48.019653
16192.968750	-48.261753
16236.035156	-48.055935
16279.101562	-48.216976
16322.167969	-48.149876
16365.234375	-47.955063
16408.300781	-48.042877
16451.367188	-48.194706
16494.433594	-48.104603
16537.500000	-48.472668
16580.566406	-48.462418
16623.632812	-48.232662
16666.699219	-48.250324
16709.765625	-48.803368
16752.832031	-48.992016
16795.898438	-48.748569
16838.964844	-48.572887
16882.031250	-48.732986
16925.097656	-48.943886
16968.164062	-48.881771
17011.230469	-48.592216
17054.296875	-48.808392
17097.363281	-49.169891
17140.429688	-49.059696
17183.496094	-49.468819
17226.562500	-49.093277
17269.628906	-48.883472
17312.695312	-48.736969
17355.761719	-48.832767
17398.828125	-49.035698
17441.894531	-49.048599
17484.960938	-49.254246
17528.027344	-49.473152
17571.093750	-49.272888
17614.160156	-49.145161
17657.226562	-49.186474
17700.292969	-49.813610
17743.359375	-50.365368
17786.425781	-50.225788
17829.492188	-49.659664
17872.558594	-49.710613
17915.625000	-50.093029
17958.691406	-50.060452
18001.757812	-49.712837
18044.824219	-49.941505
18087.890625	-50.192017
18130.957031	-50.343872
18174.023438	-50.185261
18217.089844	-49.976757
18260.156250	-50.010403
18303.222656	-50.443897
18346.289062	-50.632149
18389.355469	-50.890285
18432.421875	-50.741951
18475.488281	-50.529064
18518.554688	-51.036480
18561.621094	-50.880116
18604.687500	-50.646805
18647.753906	-50.857471
18690.820312	-51.346935
18733.886719	-51.189743
18776.953125	-51.239815
18820.019531	-51.291195
18863.085938	-50.797283
18906.152344	-51.044983
18949.218750	-51.206932
18992.285156	-51.067242
19035.351562	-51.102394
19078.417969	-50.934425
19121.484375	-50.818123
19164.550781	-51.071480
19207.617188	-51.289272
19250.683594	-51.334816
19293.750000	-51.306950
19336.816406	-51.509041
19379.882812	-52.022789
19422.949219	-51.808601
19466.015625	-51.198654
19509.082031	-51.373867
19552.148438	-51.399914
19595.214844	-51.868816
19638.281250	-51.849010
19681.347656	-51.410641
19724.414062	-51.411762
19767.480469	-51.778618
19810.546875	-52.176849
19853.613281	-52.355148
19896.679688	-52.324089
19939.746094	-51.841198
19982.812500	-51.990654
20025.878906	-52.380894
20068.945312	-52.643597
20112.011719	-52.715683
20155.078125	-52.509872
20198.144531	-52.507038
20241.210938	-52.555550
20284.277344	-52.470493
20327.343750	-52.323906
20370.410156	-52.637932
20413.476562	-52.682957
20456.542969	-52.768185
20499.609375	-52.719135
20542.675781	-52.951267
20585.742188	-52.889938
20628.808594	-52.788372
20671.875000	-52.605560
20714.941406	-52.756973
20758.007812	-52.999996
20801.074219	-52.915867
20844.140625	-52.851559
20887.207031	-53.457912
20930.273438	-53.424435
20973.339844	-53.342316
21016.406250	-53.300610
21059.472656	-53.130619
21102.539062	-53.494576
21145.605469	-53.718906
21188.671875	-53.704041
21231.738281	-53.365437
21274.804688	-53.262436
21317.871094	-53.482315
21360.937500	-53.456516
21404.003906	-53.394875
21447.070312	-53.602982
21490.136719	-53.914032
21533.203125	-54.242001
21576.269531	-54.411110
21619.335938	-53.913200
21662.402344	-54.357361
21705.468750	-55.063587
21748.535156	-54.586674
21791.601562	-54.900990
21834.667969	-55.254562
21877.734375	-55.647808
21920.800781	-56.045898
21963.867188	-56.509079
22006.933594	-56.315987
