Frequency (Hz)	Level (dB)
43.066406	-15.229251
86.132812	-8.641027
129.199219	-6.278593
172.265625	-7.304919
215.332031	-8.284219
258.398438	-9.114005
301.464844	-9.893504
344.531250	-10.713657
387.597656	-11.099404
430.664062	-11.865735
473.730469	-12.175195
516.796875	-12.396597
559.863281	-12.914157
602.929688	-13.148024
645.996094	-13.349353
689.062500	-13.955284
732.128906	-13.910025
775.195312	-14.941887
818.261719	-14.941654
861.328125	-15.128265
904.394531	-16.221161
947.460938	-16.575651
990.527344	-16.318047
1033.593750	-16.566952
1076.660156	-16.917767
1119.726562	-17.553843
1162.792969	-18.308638
1205.859375	-17.759420
1248.925781	-17.564713
1291.992188	-18.710405
1335.058594	-19.091434
1378.125000	-18.726837
1421.191406	-19.554760
1464.257812	-19.890158
1507.324219	-20.013678
1550.390625	-19.945131
1593.457031	-19.792427
1636.523438	-20.231640
1679.589844	-20.483709
1722.656250	-20.322744
1765.722656	-21.274706
1808.789062	-21.528261
1851.855469	-21.561733
1894.921875	-22.104895
1937.988281	-22.095013
1981.054688	-22.183653
2024.121094	-22.600052
2067.187500	-22.586077
2110.253906	-23.419086
2153.320312	-22.983578
2196.386719	-23.068899
2239.453125	-23.416708
2282.519531	-23.107712
2325.585938	-22.991970
2368.652344	-23.359810
2411.718750	-23.983049
2454.785156	-23.979265
2497.851562	-24.289309
2540.917969	-24.756689
2583.984375	-24.501970
2627.050781	-24.327230
2670.117188	-24.751635
2713.183594	-24.868858
2756.250000	-25.422337
2799.316406	-25.147783
2842.382812	-25.364729
2885.449219	-25.719496
2928.515625	-25.617132
2971.582031	-25.618746
3014.648438	-26.316700
3057.714844	-26.244823
3100.781250	-26.359434
3143.847656	-26.459070
3186.914062	-26.299229
3229.980469	-25.981621
3273.046875	-26.574757
3316.113281	-26.583992
3359.179688	-26.475664
3402.246094	-26.464056
3445.312500	-26.408033
3488.378906	-27.206942
3531.445312	-27.830069
3574.511719	-27.645803
3617.578125	-27.468336
3660.644531	-27.295620
3703.710938	-27.693283
3746.777344	-27.476543
3789.843750	-27.949194
3832.910156	-28.238991
3875.976562	-28.169447
3919.042969	-28.194277
3962.109375	-27.893732
4005.175781	-27.851151
4048.242188	-27.992887
4091.308594	-28.195335
4134.375000	-28.373169
4177.441406	-28.398966
4220.507812	-28.607815
4263.574219	-28.422071
4306.640625	-28.661507
4349.707031	-28.973146
4392.773438	-29.019278
4435.839844	-29.589056
4478.906250	-29.433676
4521.972656	-29.193243
4565.039062	-29.151712
4608.105469	-28.835459
4651.171875	-28.934507
4694.238281	-29.668640
4737.304688	-29.451618
4780.371094	-29.155149
4823.437500	-29.649279
4866.503906	-29.731468
4909.570312	-30.100382
4952.636719	-29.663622
4995.703125	-29.971697
5038.769531	-30.392805
5081.835938	-30.219667
5124.902344	-30.621237
5167.968750	-30.745266
5211.035156	-30.595324
5254.101562	-30.366888
5297.167969	-30.385832
5340.234375	-29.969570
5383.300781	-30.553036
5426.367188	-30.642347
5469.433594	-30.511377
5512.500000	-30.448048
5555.566406	-30.369919
5598.632812	-30.521698
5641.699219	-30.378586
5684.765625	-30.967836
5727.832031	-31.611303
5770.898438	-31.161701
5813.964844	-31.643631
5857.031250	-31.787519
5900.097656	-31.844351
5943.164062	-31.488514
5986.230469	-31.314054
6029.296875	-31.424723
6072.363281	-31.871202
6115.429688	-31.283653
6158.496094	-31.024420
6201.562500	-31.594221
6244.628906	-32.032234
6287.695312	-31.574776
6330.761719	-31.511787
6373.828125	-31.620802
6416.894531	-31.421934
6459.960938	-31.539568
6503.027344	-32.039009
6546.093750	-31.564240
6589.160156	-31.773106
6632.226562	-32.185192
6675.292969	-32.073612
6718.359375	-32.149410
6761.425781	-31.752047
6804.492188	-31.869518
6847.558594	-31.895998
6890.625000	-31.823015
6933.691406	-32.355057
6976.757812	-32.370960
7019.824219	-32.615322
7062.890625	-32.747116
7105.957031	-33.036583
7149.023438	-32.761440
7192.089844	-32.284912
7235.156250	-32.271339
7278.222656	-32.570976
7321.289062	-32.730598
7364.355469	-32.883316
7407.421875	-32.893425
7450.488281	-33.059315
7493.554688	-33.287476
7536.621094	-33.226608
7579.687500	-32.718094
7622.753906	-32.955734
7665.820312	-33.164761
7708.886719	-33.145466
7751.953125	-33.006695
7795.019531	-33.157909
7838.085938	-33.353127
7881.152344	-32.866856
7924.218750	-33.059383
7967.285156	-33.776466
8010.351562	-33.228718
8053.417969	-32.984985
8096.484375	-32.975136
8139.550781	-32.932323
8182.617188	-32.936218
8225.683594	-32.989101
8268.750000	-33.377998
8311.816406	-33.693119
8354.882812	-33.591682
8397.949219	-33.908890
8441.015625	-34.178894
8484.082031	-34.128319
8527.148438	-34.017635
8570.214844	-33.857735
8613.281250	-33.550201
8656.347656	-33.780174
8699.414062	-34.019505
8742.480469	-33.771358
8785.546875	-33.619640
8828.613281	-34.100430
8871.679688	-34.444897
8914.746094	-34.094646
8957.812500	-34.258179
9000.878906	-34.505878
9043.945312	-34.415691
9087.011719	-34.222401
9130.078125	-33.875206
9173.144531	-34.012615
9216.210938	-33.387531
9259.277344	-33.360779
9302.343750	-34.508930
9345.410156	-34.473381
9388.476562	-34.547901
9431.542969	-35.289257
9474.609375	-35.462688
9517.675781	-35.155350
9560.742188	-34.886707
9603.808594	-34.470776
9646.875000	-34.437550
9689.941406	-34.784595
9733.007812	-34.563076
9776.074219	-34.956520
9819.140625	-35.102470
9862.207031	-35.410015
9905.273438	-35.337017
9948.339844	-34.952053
9991.406250	-35.081989
10034.472656	-35.598080
10077.539062	-35.013317
10120.605469	-35.175449
10163.671875	-35.214321
10206.738281	-35.107231
10249.804688	-35.275558
10292.871094	-34.901386
10335.937500	-35.182980
10379.003906	-35.228191
10422.070312	-35.325317
10465.136719	-35.395031
10508.203125	-34.958031
10551.269531	-35.057312
10594.335938	-35.292107
10637.402344	-34.666298
10680.468750	-35.258747
10723.535156	-35.238262
10766.601562	-35.356323
10809.667969	-35.424049
10852.734375	-35.088985
10895.800781	-35.409325
10938.867188	-35.634361
10981.933594	-35.192310
11025.000000	-35.334106
11068.066406	-35.457211
11111.132812	-35.561069
11154.199219	-35.742950
11197.265625	-35.632133
11240.332031	-36.339020
11283.398438	-36.086208
11326.464844	-35.751980
11369.531250	-35.687408
11412.597656	-35.447742
11455.664062	-35.305695
11498.730469	-35.558136
11541.796875	-36.222221
11584.863281	-36.287624
11627.929688	-35.873238
11670.996094	-35.781284
11714.062500	-35.739662
11757.128906	-36.116371
11800.195312	-36.428349
11843.261719	-36.326965
11886.328125	-36.425919
11929.394531	-36.445942
11972.460938	-36.574799
12015.527344	-36.593128
12058.593750	-36.749798
12101.660156	-35.960316
12144.726562	-36.152348
12187.792969	-36.854206
12230.859375	-36.855957
12273.925781	-36.754402
12316.992188	-36.816406
12360.058594	-36.903511
12403.125000	-36.609417
12446.191406	-36.379589
12489.257812	-36.762486
12532.324219	-36.461548
12575.390625	-36.366089
12618.457031	-36.804581
12661.523438	-36.772156
12704.589844	-36.704456
12747.656250	-36.766457
12790.722656	-37.199574
12833.789062	-37.066525
12876.855469	-36.797028
12919.921875	-36.442417
12962.988281	-36.819572
13006.054688	-36.941933
13049.121094	-37.147797
13092.187500	-37.321182
13135.253906	-37.112499
13178.320312	-37.358940
13221.386719	-37.075897
13264.453125	-36.828949
13307.519531	-36.648544
13350.585938	-36.873749
13393.652344	-36.941906
13436.718750	-37.095913
13479.785156	-37.570305
13522.851562	-37.954895
13565.917969	-38.057091
13608.984375	-38.030506
13652.050781	-37.058678
13695.117188	-36.960079
13738.183594	-37.079552
13781.250000	-37.007763
13824.316406	-36.910538
13867.382812	-37.303120
13910.449219	-36.743301
13953.515625	-36.946629
13996.582031	-37.865170
14039.648438	-37.749546
14082.714844	-37.716091
14125.781250	-37.398819
14168.847656	-37.806419
14211.914062	-38.119724
14254.980469	-38.013794
14298.046875	-37.852760
14341.113281	-38.117676
14384.179688	-37.742504
14427.246094	-37.012959
14470.312500	-37.373222
14513.378906	-37.493690
14556.445312	-37.676453
14599.511719	-37.907330
14642.578125	-37.490303
14685.644531	-38.434361
14728.710938	-38.407970
14771.777344	-38.045887
14814.843750	-38.021244
14857.910156	-37.720024
14900.976562	-37.775871
14944.042969	-38.119118
14987.109375	-37.815521
15030.175781	-37.315681
15073.242188	-38.029190
15116.308594	-38.078934
15159.375000	-38.257881
15202.441406	-38.351864
15245.507812	-38.669647
15288.574219	-38.652637
15331.640625	-38.411434
15374.707031	-38.272335
15417.773438	-38.370037
15460.839844	-37.989830
15503.906250	-38.256729
15546.972656	-38.591553
15590.039062	-38.949577
15633.105469	-38.849361
15676.171875	-38.361904
15719.238281	-38.387680
15762.304688	-38.479519
15805.371094	-38.332104
15848.437500	-38.134468
15891.503906	-38.513100
15934.570312	-38.859108
15977.636719	-38.377029
16020.703125	-38.036854
16063.769531	-38.838848
16106.835938	-39.545502
16149.902344	-38.932110
16192.968750	-38.303913
16236.035156	-38.777786
16279.101562	-39.051430
16322.167969	-39.057301
16365.234375	-39.578522
16408.300781	-39.133350
16451.367188	-38.891758
16494.433594	-38.885094
16537.500000	-39.212681
16580.566406	-39.130726
16623.632812	-39.401604
16666.699219	-38.989609
16709.765625	-38.475330
16752.832031	-38.395233
16795.898438	-38.816780
16838.964844	-38.999115
16882.031250	-38.991692
16925.097656	-39.121861
16968.164062	-38.723114
17011.230469	-38.922756
17054.296875	-39.602367
17097.363281	-39.444000
17140.429688	-39.350780
17183.496094	-39.352634
17226.562500	-39.624672
17269.628906	-39.778271
17312.695312	-39.739277
17355.761719	-39.473812
17398.828125	-39.616383
17441.894531	-39.317192
17484.960938	-38.316990
17528.027344	-38.879704
17571.093750	-39.781181
17614.160156	-40.162792
17657.226562	-39.898018
17700.292969	-39.797508
17743.359375	-40.024147
17786.425781	-39.822819
17829.492188	-39.575424
17872.558594	-38.937046
17915.625000	-39.423401
17958.691406	-40.027153
18001.757812	-40.041023
18044.824219	-40.226936
18087.890625	-39.911064
18130.957031	-39.755939
18174.023438	-40.280209
18217.089844	-39.869122
18260.156250	-40.264973
18303.222656	-40.262756
18346.289062	-40.020763
18389.355469	-40.425331
18432.421875	-40.530045
18475.488281	-40.339275
18518.554688	-40.097000
18561.621094	-40.212902
18604.687500	-40.494297
18647.753906	-40.751934
18690.820312	-40.609211
18733.886719	-40.359756
18776.953125	-40.042633
18820.019531	-40.065208
18863.085938	-40.070534
18906.152344	-40.157013
18949.218750	-39.973404
18992.285156	-40.093491
19035.351562	-40.027760
19078.417969	-40.114906
19121.484375	-40.317829
19164.550781	-39.943748
19207.617188	-40.102688
19250.683594	-40.598835
19293.750000	-40.847061
19336.816406	-40.838783
19379.882812	-40.906921
19422.949219	-40.961319
19466.015625	-41.083244
19509.082031	-40.468616
19552.148438	-40.376179
19595.214844	-40.791435
19638.281250	-40.750629
19681.347656	-40.214455
19724.414062	-40.305508
19767.480469	-40.919426
19810.546875	-40.643700
19853.613281	-40.855770
19896.679688	-40.992886
19939.746094	-40.934204
19982.812500	-40.802181
20025.878906	-40.937023
20068.945312	-41.014679
20112.011719	-40.805065
20155.078125	-40.467522
20198.144531	-40.969307
20241.210938	-41.091278
20284.277344	-41.340904
20327.343750	-41.374626
20370.410156	-41.243340
20413.476562	-40.961567
20456.542969	-40.590996
20499.609375	-41.225945
20542.675781	-41.219154
20585.742188	-41.519390
20628.808594	-41.289261
20671.875000	-40.981140
20714.941406	-41.160969
20758.007812	-41.109558
20801.074219	-41.142506
20844.140625	-41.162708
20887.207031	-41.563305
20930.273438	-41.137573
20973.339844	-41.044655
21016.406250	-41.661720
21059.472656	-42.058571
21102.539062	-41.656239
21145.605469	-41.573059
21188.671875	-41.536350
21231.738281	-41.908852
21274.804688	-42.087299
21317.871094	-41.721786
21360.937500	-41.612152
21404.003906	-41.554462
21447.070312	-41.379601
21490.136719	-41.765697
21533.203125	-41.872818
21576.269531	-42.198055
21619.335938	-41.763100
21662.402344	-41.780315
21705.468750	-41.946705
21748.535156	-42.352703
21791.601562	-42.512054
21834.667969	-42.610538
21877.734375	-41.894279
21920.800781	-42.047394
21963.867188	-42.289948
22006.933594	-42.256153
