Frequency (Hz)	Level (dB)
43.066406	-27.985514
86.132812	-21.236523
129.199219	-18.821190
172.265625	-19.325129
215.332031	-19.681486
258.398438	-20.260750
301.464844	-20.691496
344.531250	-20.690832
387.597656	-20.924913
430.664062	-21.253696
473.730469	-21.047899
516.796875	-20.954626
559.863281	-21.306789
602.929688	-20.741827
645.996094	-20.541864
689.062500	-20.938717
732.128906	-20.756369
775.195312	-21.203514
818.261719	-21.145390
861.328125	-21.181953
904.394531	-21.934042
947.460938	-21.957773
990.527344	-21.483047
1033.593750	-21.282740
1076.660156	-21.454954
1119.726562	-21.719902
1162.792969	-22.325413
1205.859375	-21.564301
1248.925781	-21.430037
1291.992188	-21.953272
1335.058594	-22.481436
1378.125000	-22.031471
1421.191406	-22.533436
1464.257812	-22.450422
1507.324219	-22.561451
1550.390625	-22.447248
1593.457031	-22.447773
1636.523438	-22.501183
1679.589844	-22.484365
1722.656250	-22.520473
1765.722656	-23.241091
1808.789062	-22.968287
1851.855469	-22.778399
1894.921875	-23.316200
1937.988281	-23.427242
1981.054688	-23.129362
2024.121094	-23.473793
2067.187500	-23.644215
2110.253906	-23.857367
2153.320312	-23.454920
2196.386719	-23.402124
2239.453125	-23.323296
2282.519531	-23.493795
2325.585938	-23.406412
2368.652344	-23.581350
2411.718750	-24.034986
2454.785156	-23.815825
2497.851562	-24.118370
2540.917969	-24.426020
2583.984375	-23.977657
2627.050781	-23.831770
2670.117188	-24.165489
2713.183594	-24.270006
2756.250000	-24.768280
2799.316406	-24.257223
2842.382812	-24.156919
2885.449219	-24.279249
2928.515625	-24.710478
2971.582031	-24.635593
3014.648438	-24.972708
3057.714844	-24.522335
3100.781250	-24.809969
3143.847656	-24.771656
3186.914062	-24.496710
3229.980469	-24.083874
3273.046875	-24.826347
3316.113281	-24.845844
3359.179688	-24.541700
3402.246094	-24.562061
3445.312500	-24.627052
3488.378906	-25.198776
3531.445312	-25.371359
3574.511719	-25.331789
3617.578125	-25.439978
3660.644531	-25.011654
3703.710938	-25.274929
3746.777344	-25.344748
3789.843750	-25.709665
3832.910156	-25.453707
3875.976562	-25.199900
3919.042969	-25.192932
3962.109375	-24.770317
4005.175781	-25.064734
4048.242188	-25.031906
4091.308594	-25.511328
4134.375000	-25.804493
4177.441406	-25.637396
4220.507812	-25.304724
4263.574219	-25.202217
4306.640625	-25.489613
4349.707031	-25.770226
4392.773438	-26.030569
4435.839844	-26.265768
4478.906250	-26.136051
4521.972656	-25.866486
4565.039062	-25.858070
4608.105469	-25.658836
4651.171875	-25.734524
4694.238281	-26.346727
4737.304688	-26.471027
4780.371094	-26.000551
4823.437500	-26.288528
4866.503906	-26.462879
4909.570312	-26.728033
4952.636719	-26.151289
4995.703125	-26.479605
5038.769531	-26.740044
5081.835938	-26.464878
5124.902344	-26.630976
5167.968750	-26.503616
5211.035156	-26.648090
5254.101562	-26.765280
5297.167969	-26.784101
5340.234375	-26.183456
5383.300781	-26.797947
5426.367188	-27.231586
5469.433594	-26.775282
5512.500000	-26.918839
5555.566406	-26.558992
5598.632812	-26.448965
5641.699219	-26.890602
5684.765625	-27.363071
5727.832031	-27.722710
5770.898438	-27.506973
5813.964844	-27.515272
5857.031250	-27.422857
5900.097656	-27.313807
5943.164062	-26.957249
5986.230469	-26.887005
6029.296875	-27.227402
6072.363281	-27.434153
6115.429688	-26.847992
6158.496094	-26.545088
6201.562500	-26.979767
6244.628906	-27.597544
6287.695312	-27.577898
6330.761719	-27.586683
6373.828125	-27.292927
6416.894531	-27.441109
6459.960938	-26.969606
6503.027344	-27.290617
6546.093750	-27.568670
6589.160156	-27.870157
6632.226562	-27.901922
6675.292969	-27.530243
6718.359375	-27.536886
6761.425781	-27.549417
6804.492188	-27.346893
6847.558594	-26.803263
6890.625000	-27.272409
6933.691406	-27.843079
6976.757812	-27.896233
7019.824219	-28.174492
7062.890625	-28.183344
7105.957031	-28.195951
7149.023438	-28.150475
7192.089844	-27.557955
7235.156250	-27.337011
7278.222656	-27.544245
7321.289062	-28.094410
7364.355469	-27.999619
7407.421875	-28.289879
7450.488281	-28.244812
7493.554688	-28.127735
7536.621094	-28.203323
7579.687500	-27.912710
7622.753906	-28.055592
7665.820312	-28.383041
7708.886719	-28.556356
7751.953125	-28.518885
7795.019531	-28.293915
7838.085938	-28.316236
7881.152344	-27.785141
7924.218750	-27.842840
7967.285156	-28.254282
8010.351562	-27.967216
8053.417969	-28.201857
8096.484375	-27.993847
8139.550781	-27.820129
8182.617188	-27.796322
8225.683594	-28.141008
8268.750000	-28.476145
8311.816406	-28.777302
8354.882812	-28.769283
8397.949219	-28.814074
8441.015625	-28.928576
8484.082031	-28.892563
8527.148438	-28.826748
8570.214844	-28.859541
8613.281250	-28.164234
8656.347656	-28.313272
8699.414062	-28.581202
8742.480469	-28.788609
8785.546875	-28.719858
8828.613281	-28.485828
8871.679688	-28.653917
8914.746094	-28.936882
8957.812500	-28.994877
9000.878906	-28.911768
9043.945312	-29.036346
9087.011719	-28.868256
9130.078125	-28.710072
9173.144531	-28.887421
9216.210938	-28.599518
9259.277344	-28.957897
9302.343750	-29.636936
9345.410156	-29.400103
9388.476562	-29.569490
9431.542969	-29.910168
9474.609375	-29.650087
9517.675781	-29.322960
9560.742188	-29.378637
9603.808594	-28.836967
9646.875000	-29.172531
9689.941406	-29.721819
9733.007812	-29.397757
9776.074219	-29.692694
9819.140625	-29.771984
9862.207031	-29.660671
9905.273438	-29.977943
9948.339844	-29.861443
9991.406250	-29.766756
10034.472656	-29.754776
10077.539062	-29.325136
10120.605469	-29.488197
10163.671875	-29.180101
10206.738281	-29.814613
10249.804688	-30.158615
10292.871094	-29.477715
10335.937500	-29.444105
10379.003906	-29.558605
10422.070312	-29.504263
10465.136719	-29.625629
10508.203125	-29.342367
10551.269531	-29.146868
10594.335938	-29.369291
10637.402344	-29.488123
10680.468750	-30.023956
10723.535156	-29.799807
10766.601562	-29.698748
10809.667969	-29.757124
10852.734375	-29.744814
10895.800781	-30.002146
10938.867188	-30.024387
10981.933594	-29.513470
11025.000000	-29.538317
11068.066406	-29.305984
11111.132812	-29.176167
11154.199219	-29.809986
11197.265625	-30.012976
11240.332031	-30.256605
11283.398438	-30.027344
11326.464844	-29.572273
11369.531250	-29.395868
11412.597656	-29.972912
11455.664062	-30.107367
11498.730469	-30.174215
11541.796875	-30.184023
11584.863281	-30.757565
11627.929688	-30.557613
11670.996094	-30.070211
11714.062500	-29.828526
11757.128906	-30.195370
11800.195312	-30.291004
11843.261719	-30.241978
11886.328125	-29.869406
11929.394531	-29.832241
11972.460938	-30.370848
12015.527344	-30.550781
12058.593750	-29.878731
12101.660156	-29.770889
12144.726562	-29.896259
12187.792969	-30.198381
12230.859375	-30.260012
12273.925781	-30.198479
12316.992188	-30.559895
12360.058594	-30.670731
12403.125000	-30.476969
12446.191406	-30.441339
12489.257812	-30.762611
12532.324219	-30.589819
12575.390625	-30.484556
12618.457031	-30.538445
12661.523438	-30.329876
12704.589844	-30.505026
12747.656250	-30.493799
12790.722656	-30.895910
12833.789062	-31.140751
12876.855469	-30.507561
12919.921875	-30.253439
12962.988281	-30.644163
13006.054688	-30.583509
13049.121094	-30.846926
13092.187500	-30.689856
13135.253906	-30.490320
13178.320312	-31.099215
13221.386719	-30.948856
13264.453125	-30.560120
13307.519531	-30.483715
13350.585938	-30.700541
13393.652344	-31.362944
13436.718750	-31.031065
13479.785156	-31.122663
13522.851562	-31.107214
13565.917969	-31.213093
13608.984375	-31.673683
13652.050781	-30.709541
13695.117188	-31.029165
13738.183594	-31.327604
13781.250000	-30.875137
13824.316406	-30.770582
13867.382812	-31.221016
13910.449219	-31.209042
13953.515625	-31.176260
13996.582031	-31.743118
14039.648438	-31.636322
14082.714844	-31.575737
14125.781250	-31.009722
14168.847656	-31.341139
14211.914062	-31.831982
14254.980469	-31.754543
14298.046875	-31.487131
14341.113281	-30.920155
14384.179688	-30.868465
14427.246094	-31.090588
14470.312500	-31.161766
14513.378906	-31.084858
14556.445312	-31.269426
14599.511719	-31.431719
14642.578125	-31.001980
14685.644531	-31.650295
14728.710938	-31.636759
14771.777344	-31.206425
14814.843750	-31.146002
14857.910156	-30.897650
14900.976562	-31.130379
14944.042969	-31.659029
14987.109375	-31.162340
15030.175781	-31.290815
15073.242188	-31.538097
15116.308594	-31.291941
15159.375000	-31.583729
15202.441406	-31.823421
15245.507812	-32.187229
15288.574219	-31.766100
15331.640625	-31.449165
15374.707031	-31.300703
15417.773438	-31.560635
15460.839844	-31.798454
15503.906250	-31.915686
15546.972656	-31.919676
15590.039062	-31.949129
15633.105469	-32.345757
15676.171875	-31.984482
15719.238281	-31.503786
15762.304688	-31.586878
15805.371094	-32.052357
15848.437500	-32.008041
15891.503906	-31.442692
15934.570312	-31.247305
15977.636719	-31.579834
16020.703125	-31.971508
16063.769531	-32.279755
16106.835938	-31.848085
16149.902344	-31.776262
16192.968750	-32.027214
16236.035156	-32.204372
16279.101562	-32.448273
16322.167969	-31.995115
16365.234375	-31.929684
16408.300781	-31.774456
16451.367188	-31.763815
16494.433594	-31.692738
16537.500000	-32.325935
16580.566406	-32.889629
16623.632812	-32.363949
16666.699219	-31.873158
16709.765625	-31.866581
16752.832031	-32.137512
16795.898438	-31.694260
16838.964844	-31.857981
16882.031250	-31.816284
16925.097656	-32.487186
16968.164062	-32.355679
17011.230469	-32.081448
17054.296875	-32.252220
17097.363281	-32.219814
17140.429688	-31.866665
17183.496094	-31.985281
17226.562500	-32.245998
17269.628906	-32.537289
17312.695312	-33.005474
17355.761719	-33.168633
17398.828125	-32.861607
17441.894531	-32.004021
17484.960938	-31.722502
17528.027344	-32.110126
17571.093750	-32.272690
17614.160156	-32.369381
17657.226562	-32.430698
17700.292969	-32.634319
17743.359375	-32.629410
17786.425781	-32.713203
17829.492188	-32.732647
17872.558594	-32.525589
17915.625000	-32.605099
17958.691406	-32.947517
18001.757812	-33.407646
18044.824219	-32.866959
18087.890625	-32.519447
18130.957031	-32.689953
18174.023438	-32.958511
18217.089844	-33.028637
18260.156250	-32.572376
18303.222656	-32.526512
18346.289062	-32.411606
18389.355469	-33.289753
18432.421875	-33.431889
18475.488281	-32.792645
18518.554688	-32.299355
18561.621094	-32.404140
18604.687500	-32.834389
18647.753906	-32.848064
18690.820312	-32.999523
18733.886719	-32.873882
18776.953125	-33.171528
18820.019531	-33.469814
18863.085938	-32.925152
18906.152344	-33.121590
18949.218750	-32.934322
18992.285156	-32.685848
19035.351562	-32.719254
19078.417969	-32.719540
19121.484375	-32.938183
19164.550781	-32.852760
19207.617188	-32.782265
19250.683594	-33.016460
19293.750000	-33.202831
19336.816406	-33.489964
19379.882812	-33.080906
19422.949219	-32.724560
19466.015625	-33.064404
19509.082031	-32.891293
19552.148438	-32.860207
19595.214844	-32.897831
19638.281250	-32.684895
19681.347656	-32.450615
19724.414062	-32.897171
19767.480469	-33.406075
19810.546875	-33.441715
19853.613281	-33.361721
19896.679688	-33.349701
19939.746094	-33.786469
19982.812500	-33.364941
20025.878906	-32.647617
20068.945312	-33.070381
20112.011719	-33.465714
20155.078125	-33.618801
20198.144531	-34.208782
20241.210938	-33.784191
20284.277344	-33.745426
20327.343750	-34.247059
20370.410156	-33.911461
20413.476562	-33.179115
20456.542969	-32.958752
20499.609375	-33.182327
20542.675781	-33.413174
20585.742188	-33.758598
20628.808594	-34.318600
20671.875000	-33.999531
20714.941406	-33.866264
20758.007812	-34.155502
20801.074219	-34.219524
20844.140625	-34.124958
20887.207031	-33.858349
20930.273438	-33.888126
20973.339844	-33.555332
21016.406250	-33.837273
21059.472656	-33.955948
21102.539062	-34.145901
21145.605469	-34.306896
21188.671875	-34.343155
21231.738281	-33.896740
21274.804688	-33.838654
21317.871094	-34.292847
21360.937500	-34.633453
21404.003906	-34.850945
21447.070312	-34.810356
21490.136719	-34.652237
21533.203125	-34.309761
21576.269531	-34.801083
21619.335938	-35.184769
21662.402344	-34.968788
21705.468750	-34.977024
21748.535156	-35.698360
21791.601562	-36.485104
21834.667969	-37.208599
21877.734375	-38.601814
21920.800781	-40.430691
21963.867188	-43.178131
22006.933594	-47.472389
