Frequency (Hz)	Level (dB)
43.066406	-24.795599
86.132812	-23.989151
129.199219	-23.920534
172.265625	-22.804270
215.332031	-22.218361
258.398438	-21.625208
301.464844	-21.100641
344.531250	-20.575663
387.597656	-20.196205
430.664062	-20.067701
473.730469	-19.969934
516.796875	-20.145813
559.863281	-19.700970
602.929688	-19.169348
645.996094	-19.208759
689.062500	-19.289558
732.128906	-18.808628
775.195312	-18.856405
818.261719	-18.880894
861.328125	-18.926109
904.394531	-19.254774
947.460938	-19.617945
990.527344	-19.550777
1033.593750	-19.673643
1076.660156	-19.524893
1119.726562	-19.780251
1162.792969	-19.814476
1205.859375	-19.553267
1248.925781	-19.781485
1291.992188	-20.485104
1335.058594	-20.559994
1378.125000	-20.013054
1421.191406	-20.360743
1464.257812	-20.809765
1507.324219	-20.536846
1550.390625	-20.472828
1593.457031	-20.679850
1636.523438	-20.594784
1679.589844	-20.761047
1722.656250	-21.298067
1765.722656	-21.218142
1808.789062	-21.167488
1851.855469	-21.316671
1894.921875	-21.617649
1937.988281	-21.540823
1981.054688	-21.834375
2024.121094	-22.225737
2067.187500	-22.138088
2110.253906	-21.981117
2153.320312	-21.991371
2196.386719	-22.369331
2239.453125	-22.115141
2282.519531	-22.348728
2325.585938	-22.452717
2368.652344	-22.756340
2411.718750	-23.217806
2454.785156	-23.642731
2497.851562	-23.218616
2540.917969	-23.103146
2583.984375	-23.348658
2627.050781	-23.537674
2670.117188	-23.600767
2713.183594	-23.485268
2756.250000	-23.810272
2799.316406	-23.879667
2842.382812	-23.873644
2885.449219	-24.410967
2928.515625	-24.390505
2971.582031	-24.590076
3014.648438	-24.723480
3057.714844	-24.414240
3100.781250	-24.532188
3143.847656	-24.700975
3186.914062	-24.544554
3229.980469	-24.824301
3273.046875	-25.333023
3316.113281	-25.528519
3359.179688	-25.259388
3402.246094	-25.221779
3445.312500	-25.720341
3488.378906	-25.670246
3531.445312	-25.619637
3574.511719	-25.866966
3617.578125	-26.149439
3660.644531	-25.812273
3703.710938	-26.139219
3746.777344	-26.595724
3789.843750	-26.465736
3832.910156	-26.732073
3875.976562	-26.626808
3919.042969	-26.873159
3962.109375	-26.716038
4005.175781	-26.911505
4048.242188	-27.063288
4091.308594	-27.389128
4134.375000	-27.141790
4177.441406	-26.950161
4220.507812	-27.001724
4263.574219	-27.289179
4306.640625	-27.389374
4349.707031	-27.497137
4392.773438	-27.635794
4435.839844	-27.787533
4478.906250	-27.697666
4521.972656	-28.268007
4565.039062	-28.494324
4608.105469	-28.446259
4651.171875	-28.313082
4694.238281	-28.143810
4737.304688	-27.864449
4780.371094	-27.776611
4823.437500	-28.173485
4866.503906	-28.754055
4909.570312	-28.872747
4952.636719	-28.662506
4995.703125	-28.719248
5038.769531	-29.210051
5081.835938	-29.089764
5124.902344	-29.241856
5167.968750	-29.171568
5211.035156	-29.271179
5254.101562	-29.596451
5297.167969	-29.461622
5340.234375	-29.595186
5383.300781	-29.560680
5426.367188	-30.007040
5469.433594	-30.145943
5512.500000	-29.930389
5555.566406	-29.905434
5598.632812	-29.769979
5641.699219	-29.853683
5684.765625	-29.827892
5727.832031	-30.023470
5770.898438	-30.235886
5813.964844	-30.392105
5857.031250	-30.379379
5900.097656	-31.043400
5943.164062	-30.446384
5986.230469	-30.258936
6029.296875	-30.671572
6072.363281	-30.832424
6115.429688	-30.866945
6158.496094	-30.929573
6201.562500	-31.173189
6244.628906	-31.077707
6287.695312	-31.090094
6330.761719	-31.534885
6373.828125	-31.283197
6416.894531	-30.971590
6459.960938	-31.009375
6503.027344	-31.850653
6546.093750	-32.067341
6589.160156	-31.944118
6632.226562	-32.295013
6675.292969	-32.032467
6718.359375	-31.924566
6761.425781	-31.960976
6804.492188	-32.601986
6847.558594	-32.377773
6890.625000	-32.424995
6933.691406	-32.173462
6976.757812	-32.146824
7019.824219	-32.225842
7062.890625	-32.519341
7105.957031	-32.626122
7149.023438	-32.991528
7192.089844	-33.169594
7235.156250	-32.826263
7278.222656	-32.625565
7321.289062	-33.049732
7364.355469	-33.187176
7407.421875	-33.068245
7450.488281	-32.871754
7493.554688	-33.225052
7536.621094	-33.291115
7579.687500	-33.165180
7622.753906	-33.323952
7665.820312	-33.309204
7708.886719	-33.641552
7751.953125	-33.547382
7795.019531	-33.400620
7838.085938	-33.557377
7881.152344	-33.715496
7924.218750	-33.853100
7967.285156	-34.178944
8010.351562	-33.969837
8053.417969	-33.721165
8096.484375	-33.649990
8139.550781	-33.824196
8182.617188	-34.052563
8225.683594	-34.197880
8268.750000	-34.359066
8311.816406	-34.249741
8354.882812	-34.278263
8397.949219	-34.459225
8441.015625	-34.670353
8484.082031	-34.279320
8527.148438	-34.695042
8570.214844	-35.213013
8613.281250	-35.193787
8656.347656	-34.954826
8699.414062	-34.623405
8742.480469	-35.182636
8785.546875	-35.106331
8828.613281	-35.227375
8871.679688	-35.481415
8914.746094	-35.420250
8957.812500	-35.301502
9000.878906	-35.251656
9043.945312	-35.199547
9087.011719	-35.428898
9130.078125	-35.391796
9173.144531	-35.645157
9216.210938	-35.976349
9259.277344	-35.964050
9302.343750	-36.205242
9345.410156	-36.037918
9388.476562	-35.788582
9431.542969	-35.689342
9474.609375	-35.870102
9517.675781	-36.058395
9560.742188	-35.810307
9603.808594	-35.722080
9646.875000	-36.104897
9689.941406	-36.452667
9733.007812	-36.390850
9776.074219	-36.125217
9819.140625	-36.260605
9862.207031	-36.403618
9905.273438	-36.314590
9948.339844	-36.450520
9991.406250	-36.611938
10034.472656	-36.759857
10077.539062	-36.874187
10120.605469	-36.809921
10163.671875	-36.582382
10206.738281	-36.996704
10249.804688	-37.113392
10292.871094	-36.793827
10335.937500	-36.572960
10379.003906	-36.718739
10422.070312	-36.976212
10465.136719	-36.820271
10508.203125	-36.842926
10551.269531	-37.275772
10594.335938	-37.513721
10637.402344	-37.743198
10680.468750	-37.382698
10723.535156	-37.634430
10766.601562	-37.943462
10809.667969	-37.775784
10852.734375	-37.585915
10895.800781	-37.485973
10938.867188	-37.526249
10981.933594	-37.845631
11025.000000	-37.786079
11068.066406	-37.867249
11111.132812	-37.981197
11154.199219	-38.039677
11197.265625	-37.850536
11240.332031	-37.700634
11283.398438	-37.836151
11326.464844	-37.989647
11369.531250	-38.421219
11412.597656	-38.378834
11455.664062	-38.302555
11498.730469	-38.146706
11541.796875	-37.837753
11584.863281	-38.163906
11627.929688	-38.371613
11670.996094	-38.934929
11714.062500	-38.539772
11757.128906	-38.283085
11800.195312	-38.596516
11843.261719	-38.673664
11886.328125	-38.521965
11929.394531	-38.563889
11972.460938	-38.571949
12015.527344	-38.807961
12058.593750	-38.953274
12101.660156	-39.080009
12144.726562	-38.769592
12187.792969	-38.750854
12230.859375	-39.055000
12273.925781	-38.774712
12316.992188	-38.797947
12360.058594	-39.181988
12403.125000	-39.284904
12446.191406	-39.387341
12489.257812	-39.248478
12532.324219	-39.780579
12575.390625	-39.732567
12618.457031	-39.846321
12661.523438	-39.993549
12704.589844	-39.911240
12747.656250	-39.998199
12790.722656	-39.689480
12833.789062	-39.570484
12876.855469	-39.723942
12919.921875	-39.461132
12962.988281	-39.591076
13006.054688	-39.814888
13049.121094	-39.900436
13092.187500	-40.079185
13135.253906	-39.929680
13178.320312	-40.287056
13221.386719	-39.935238
13264.453125	-39.979473
13307.519531	-40.147331
13350.585938	-40.232491
13393.652344	-40.182194
13436.718750	-40.640991
13479.785156	-40.537796
13522.851562	-40.528587
13565.917969	-40.414585
13608.984375	-40.264870
13652.050781	-40.502369
13695.117188	-40.693771
13738.183594	-40.457493
13781.250000	-40.701729
13824.316406	-40.928707
13867.382812	-40.659180
13910.449219	-41.020966
13953.515625	-41.254128
13996.582031	-41.020363
14039.648438	-40.875656
14082.714844	-41.020672
14125.781250	-40.838959
14168.847656	-40.925880
14211.914062	-41.067028
14254.980469	-41.028904
14298.046875	-41.047009
14341.113281	-41.338604
14384.179688	-41.798058
14427.246094	-41.695900
14470.312500	-41.411140
14513.378906	-41.163509
14556.445312	-41.455715
14599.511719	-41.629097
14642.578125	-41.125759
14685.644531	-41.349537
14728.710938	-41.740906
14771.777344	-41.861252
14814.843750	-41.891590
14857.910156	-41.632076
14900.976562	-41.800507
14944.042969	-41.871044
14987.109375	-41.834019
15030.175781	-41.646736
15073.242188	-41.903828
15116.308594	-42.157749
15159.375000	-41.790520
15202.441406	-41.700283
15245.507812	-42.375046
15288.574219	-42.107838
15331.640625	-42.166988
15374.707031	-42.621307
15417.773438	-42.259964
15460.839844	-41.648163
15503.906250	-42.267136
15546.972656	-42.342392
15590.039062	-42.353973
15633.105469	-42.304173
15676.171875	-42.403725
15719.238281	-42.800869
15762.304688	-42.695393
15805.371094	-42.762920
15848.437500	-42.810730
15891.503906	-42.727425
15934.570312	-42.731407
15977.636719	-42.474316
16020.703125	-42.661377
16063.769531	-43.020203
16106.835938	-42.839840
16149.902344	-42.527103
16192.968750	-42.842896
16236.035156	-42.856876
16279.101562	-42.999317
16322.167969	-42.936344
16365.234375	-42.851120
16408.300781	-43.040409
16451.367188	-43.412163
16494.433594	-43.078491
16537.500000	-43.083706
16580.566406	-43.134586
16623.632812	-42.952267
16666.699219	-43.235786
16709.765625	-43.628986
16752.832031	-43.456047
16795.898438	-43.530231
16838.964844	-43.555706
16882.031250	-43.304913
16925.097656	-43.331615
16968.164062	-43.421627
17011.230469	-43.662029
17054.296875	-43.753696
17097.363281	-44.077759
17140.429688	-43.479370
17183.496094	-43.567963
17226.562500	-43.633068
17269.628906	-43.893257
17312.695312	-44.175922
17355.761719	-43.922615
17398.828125	-44.076302
17441.894531	-44.174450
17484.960938	-43.924511
17528.027344	-43.900841
17571.093750	-43.674179
17614.160156	-44.148228
17657.226562	-44.165909
17700.292969	-43.988792
17743.359375	-44.332466
17786.425781	-44.489826
17829.492188	-44.020645
17872.558594	-44.215637
17915.625000	-44.399082
17958.691406	-44.282925
18001.757812	-44.249744
18044.824219	-44.569969
18087.890625	-44.619175
18130.957031	-44.717045
18174.023438	-44.841480
18217.089844	-44.854912
18260.156250	-44.855534
18303.222656	-45.244450
18346.289062	-45.174278
18389.355469	-45.150539
18432.421875	-44.919014
18475.488281	-45.007980
18518.554688	-45.446724
18561.621094	-44.863457
18604.687500	-44.869823
18647.753906	-45.232586
18690.820312	-45.706680
18733.886719	-45.368210
18776.953125	-45.548283
18820.019531	-46.017197
18863.085938	-45.426800
18906.152344	-45.088902
18949.218750	-45.382858
18992.285156	-45.491566
19035.351562	-45.392590
19078.417969	-45.411922
19121.484375	-45.018051
19164.550781	-45.351433
19207.617188	-45.740459
19250.683594	-45.848522
19293.750000	-46.167130
19336.816406	-46.230534
19379.882812	-45.843918
19422.949219	-45.606121
19466.015625	-45.633953
19509.082031	-45.754112
19552.148438	-45.462967
19595.214844	-45.995426
19638.281250	-46.231026
19681.347656	-45.684620
19724.414062	-45.577904
19767.480469	-45.702511
19810.546875	-46.231194
19853.613281	-46.345535
19896.679688	-46.471508
19939.746094	-46.166008
19982.812500	-45.983276
20025.878906	-45.939587
20068.945312	-46.344433
20112.011719	-46.771942
20155.078125	-46.284935
20198.144531	-46.342487
20241.210938	-46.410168
20284.277344	-46.518623
20327.343750	-46.461369
20370.410156	-46.673714
20413.476562	-46.882973
20456.542969	-47.113281
20499.609375	-46.697571
20542.675781	-46.902691
20585.742188	-46.948666
20628.808594	-47.091236
20671.875000	-46.416050
20714.941406	-46.588566
20758.007812	-46.873524
20801.074219	-46.619640
20844.140625	-46.558052
20887.207031	-47.194069
20930.273438	-47.167282
20973.339844	-47.089706
21016.406250	-46.647995
21059.472656	-46.572998
21102.539062	-46.959385
21145.605469	-47.332054
21188.671875	-47.386650
21231.738281	-47.557072
21274.804688	-47.116917
21317.871094	-46.930088
21360.937500	-47.398129
21404.003906	-47.907192
21447.070312	-47.708771
21490.136719	-47.364460
21533.203125	-47.589874
21576.269531	-47.836758
21619.335938	-47.777634
21662.402344	-48.282398
21705.468750	-48.414917
21748.535156	-48.277336
21791.601562	-48.314949
21834.667969	-48.412758
21877.734375	-48.855484
21920.800781	-48.936825
21963.867188	-49.615227
22006.933594	-49.674122
