Frequency (Hz)	Level (dB)
43.066406	-26.126175
86.132812	-21.864435
129.199219	-20.175329
172.265625	-19.745392
215.332031	-19.481319
258.398438	-19.695091
301.464844	-20.005411
344.531250	-20.558886
387.597656	-21.619881
430.664062	-22.213408
473.730469	-22.429583
516.796875	-23.142035
559.863281	-23.162029
602.929688	-23.022579
645.996094	-23.367136
689.062500	-24.063040
732.128906	-23.960672
775.195312	-24.134754
818.261719	-24.191442
861.328125	-24.403206
904.394531	-24.878065
947.460938	-25.110813
990.527344	-24.910679
1033.593750	-24.970610
1076.660156	-25.193686
1119.726562	-25.736195
1162.792969	-25.732693
1205.859375	-25.433367
1248.925781	-25.815216
1291.992188	-26.231882
1335.058594	-26.691254
1378.125000	-26.477089
1421.191406	-27.078108
1464.257812	-27.736479
1507.324219	-27.656908
1550.390625	-27.670475
1593.457031	-27.803392
1636.523438	-28.483456
1679.589844	-28.423904
1722.656250	-28.378616
1765.722656	-28.885908
1808.789062	-29.050079
1851.855469	-29.399727
1894.921875	-29.819927
1937.988281	-30.269022
1981.054688	-30.483627
2024.121094	-30.661257
2067.187500	-30.621637
2110.253906	-31.171915
2153.320312	-31.117830
2196.386719	-31.267138
2239.453125	-31.425728
2282.519531	-31.450562
2325.585938	-31.743349
2368.652344	-32.156898
2411.718750	-32.590740
2454.785156	-32.415874
2497.851562	-32.705833
2540.917969	-33.327400
2583.984375	-33.703331
2627.050781	-33.828682
2670.117188	-34.119396
2713.183594	-34.079411
2756.250000	-34.402946
2799.316406	-34.714134
2842.382812	-34.944904
2885.449219	-34.754219
2928.515625	-35.087570
2971.582031	-35.472294
3014.648438	-35.927456
3057.714844	-36.167126
3100.781250	-36.058666
3143.847656	-36.340939
3186.914062	-36.477734
3229.980469	-36.554443
3273.046875	-37.103031
3316.113281	-37.132114
3359.179688	-37.399361
3402.246094	-37.782112
3445.312500	-37.783943
3488.378906	-38.236691
3531.445312	-38.645580
3574.511719	-38.772289
3617.578125	-39.157566
3660.644531	-39.120007
3703.710938	-39.057537
3746.777344	-39.397289
3789.843750	-39.933678
3832.910156	-39.630905
3875.976562	-39.711945
3919.042969	-40.088104
3962.109375	-40.252914
4005.175781	-40.187069
4048.242188	-40.585732
4091.308594	-40.411198
4134.375000	-40.702007
4177.441406	-41.323452
4220.507812	-41.388500
4263.574219	-41.472954
4306.640625	-41.913986
4349.707031	-41.788651
4392.773438	-42.342281
4435.839844	-42.795956
4478.906250	-42.925922
4521.972656	-42.684002
4565.039062	-42.888531
4608.105469	-42.983196
4651.171875	-43.261242
4694.238281	-43.530060
4737.304688	-43.816692
4780.371094	-43.559792
4823.437500	-43.550758
4866.503906	-44.294319
4909.570312	-44.445351
4952.636719	-44.338360
4995.703125	-44.767181
5038.769531	-44.868656
5081.835938	-44.984997
5124.902344	-45.335785
5167.968750	-45.645367
5211.035156	-45.684231
5254.101562	-45.541462
5297.167969	-46.047054
5340.234375	-45.830200
5383.300781	-46.155838
5426.367188	-46.509510
5469.433594	-46.715355
5512.500000	-47.037128
5555.566406	-47.183025
5598.632812	-47.034725
5641.699219	-47.065037
5684.765625	-47.442318
5727.832031	-47.763348
5770.898438	-48.062874
5813.964844	-48.074116
5857.031250	-48.205292
5900.097656	-48.212456
5943.164062	-48.301201
5986.230469	-48.314983
6029.296875	-48.525707
6072.363281	-48.615906
6115.429688	-48.491848
6158.496094	-48.881393
6201.562500	-49.269829
6244.628906	-49.551636
6287.695312	-49.714886
6330.761719	-49.702400
6373.828125	-49.736954
6416.894531	-49.826477
6459.960938	-50.065346
6503.027344	-50.200985
6546.093750	-50.409718
6589.160156	-50.438332
6632.226562	-50.854099
6675.292969	-51.322437
6718.359375	-51.486729
6761.425781	-51.599571
6804.492188	-51.641628
6847.558594	-51.148014
6890.625000	-51.465958
6933.691406	-51.726612
6976.757812	-51.813381
7019.824219	-52.030403
7062.890625	-52.423462
7105.957031	-52.595322
7149.023438	-52.863403
7192.089844	-52.872623
7235.156250	-52.789764
7278.222656	-52.857925
7321.289062	-53.523800
7364.355469	-53.513813
7407.421875	-53.336891
7450.488281	-53.437008
7493.554688	-54.034439
7536.621094	-54.208927
7579.687500	-53.817421
7622.753906	-54.089958
7665.820312	-54.472229
7708.886719	-54.861778
7751.953125	-54.801350
7795.019531	-54.907257
7838.085938	-54.716820
7881.152344	-54.529911
7924.218750	-54.833775
7967.285156	-55.410542
8010.351562	-55.638371
8053.417969	-55.900993
8096.484375	-56.014744
8139.550781	-55.606548
8182.617188	-55.597641
8225.683594	-55.618469
8268.750000	-56.163078
8311.816406	-56.320786
8354.882812	-56.849144
8397.949219	-57.119606
8441.015625	-57.179260
8484.082031	-57.335701
8527.148438	-57.450191
8570.214844	-57.335182
8613.281250	-57.038605
8656.347656	-57.153233
8699.414062	-57.519714
8742.480469	-58.012390
8785.546875	-57.986145
8828.613281	-57.864975
8871.679688	-58.156654
8914.746094	-58.365551
8957.812500	-58.629066
9000.878906	-58.714096
9043.945312	-58.603729
9087.011719	-58.592861
9130.078125	-58.843754
9173.144531	-58.856056
9216.210938	-58.827572
9259.277344	-59.148457
9302.343750	-59.367477
9345.410156	-59.875786
9388.476562	-59.595348
9431.542969	-60.108334
9474.609375	-59.928333
9517.675781	-60.066368
9560.742188	-60.528503
9603.808594	-60.324642
9646.875000	-60.725368
9689.941406	-60.616264
9733.007812	-60.775032
9776.074219	-60.745850
9819.140625	-61.107029
9862.207031	-60.941856
9905.273438	-61.410519
9948.339844	-61.197174
9991.406250	-61.453537
10034.472656	-61.620193
10077.539062	-61.614513
10120.605469	-61.502762
10163.671875	-61.738483
10206.738281	-62.151474
10249.804688	-62.330276
10292.871094	-62.000629
10335.937500	-62.482887
10379.003906	-62.490604
10422.070312	-62.470795
10465.136719	-62.619209
10508.203125	-62.426830
10551.269531	-62.760487
10594.335938	-62.869286
10637.402344	-63.034908
10680.468750	-63.555965
10723.535156	-63.510357
10766.601562	-63.360748
10809.667969	-63.448200
10852.734375	-63.481064
10895.800781	-63.853405
10938.867188	-63.885426
10981.933594	-63.903912
11025.000000	-63.874722
11068.066406	-64.093033
11111.132812	-64.277733
11154.199219	-64.657066
11197.265625	-64.706703
11240.332031	-64.587700
11283.398438	-64.474342
11326.464844	-64.440544
11369.531250	-64.949272
11412.597656	-65.161545
11455.664062	-64.989716
11498.730469	-65.083420
11541.796875	-65.320045
11584.863281	-65.699104
11627.929688	-65.619003
11670.996094	-65.916046
11714.062500	-66.042694
11757.128906	-65.689072
11800.195312	-66.177238
11843.261719	-66.278732
11886.328125	-65.688911
11929.394531	-66.262260
11972.460938	-66.553741
12015.527344	-66.782242
12058.593750	-66.783409
12101.660156	-66.268021
12144.726562	-66.619026
12187.792969	-67.027809
12230.859375	-67.128075
12273.925781	-67.285080
12316.992188	-67.580299
12360.058594	-67.502396
12403.125000	-67.219223
12446.191406	-66.984863
12489.257812	-67.812904
12532.324219	-67.837280
12575.390625	-67.858131
12618.457031	-67.982414
12661.523438	-67.733643
12704.589844	-67.581200
12747.656250	-67.855492
12790.722656	-68.631859
12833.789062	-68.775696
12876.855469	-68.527107
12919.921875	-68.355446
12962.988281	-68.414879
13006.054688	-68.763283
13049.121094	-68.895233
13092.187500	-68.701935
13135.253906	-68.748550
13178.320312	-69.211258
13221.386719	-68.876122
13264.453125	-69.061363
13307.519531	-68.978355
13350.585938	-68.961601
13393.652344	-69.495651
13436.718750	-69.548126
13479.785156	-69.801865
13522.851562	-69.479858
13565.917969	-69.762184
13608.984375	-70.232864
13652.050781	-70.466064
13695.117188	-70.518974
13738.183594	-70.247375
13781.250000	-70.267685
13824.316406	-70.027588
13867.382812	-70.003586
13910.449219	-70.661774
13953.515625	-70.720566
13996.582031	-70.699913
14039.648438	-70.795052
14082.714844	-70.832634
14125.781250	-70.963211
14168.847656	-71.247948
14211.914062	-71.524513
14254.980469	-71.406036
14298.046875	-71.113510
14341.113281	-71.423447
14384.179688	-71.369194
14427.246094	-71.493187
14470.312500	-71.718307
14513.378906	-71.991158
14556.445312	-71.436432
14599.511719	-71.687073
14642.578125	-71.701584
14685.644531	-72.237007
14728.710938	-72.398705
14771.777344	-71.938194
14814.843750	-72.087814
14857.910156	-72.055466
14900.976562	-72.106270
14944.042969	-72.395325
14987.109375	-72.424561
15030.175781	-72.726639
15073.242188	-72.744919
15116.308594	-72.783569
15159.375000	-72.733208
15202.441406	-72.900604
15245.507812	-73.017448
15288.574219	-73.124802
15331.640625	-73.221703
15374.707031	-73.255455
15417.773438	-73.201721
15460.839844	-73.039116
15503.906250	-73.046066
15546.972656	-72.999420
15590.039062	-73.209534
15633.105469	-73.416725
15676.171875	-73.437035
15719.238281	-73.675201
15762.304688	-74.128838
15805.371094	-74.490623
15848.437500	-73.941154
15891.503906	-73.830681
15934.570312	-73.959610
15977.636719	-74.283623
16020.703125	-74.263878
16063.769531	-74.436180
16106.835938	-74.379913
16149.902344	-74.426010
16192.968750	-74.145790
16236.035156	-74.370331
16279.101562	-74.818161
16322.167969	-74.639374
16365.234375	-74.858742
16408.300781	-74.420395
16451.367188	-74.098518
16494.433594	-74.281319
16537.500000	-74.970009
16580.566406	-75.504944
16623.632812	-75.341087
16666.699219	-75.296890
16709.765625	-74.876228
16752.832031	-75.326942
16795.898438	-75.704102
16838.964844	-75.615364
16882.031250	-75.445526
16925.097656	-75.627640
16968.164062	-75.600494
17011.230469	-75.226776
17054.296875	-75.403244
17097.363281	-76.045685
17140.429688	-75.822563
17183.496094	-75.588394
17226.562500	-75.747742
17269.628906	-75.801224
17312.695312	-75.950424
17355.761719	-76.111687
17398.828125	-76.295921
17441.894531	-76.450317
17484.960938	-76.055916
17528.027344	-76.203476
17571.093750	-76.714775
17614.160156	-76.342323
17657.226562	-76.457375
17700.292969	-76.947800
17743.359375	-77.103104
17786.425781	-76.534935
17829.492188	-76.519531
17872.558594	-76.893204
17915.625000	-77.057419
17958.691406	-77.251625
18001.757812	-77.172577
18044.824219	-77.302177
18087.890625	-76.875755
18130.957031	-76.976440
18174.023438	-76.896095
18217.089844	-77.096207
18260.156250	-77.200302
18303.222656	-77.263535
18346.289062	-77.410278
18389.355469	-77.752365
18432.421875	-77.375587
18475.488281	-77.342224
18518.554688	-77.072212
18561.621094	-77.285080
18604.687500	-77.547684
18647.753906	-77.553574
18690.820312	-77.873474
18733.886719	-77.858902
18776.953125	-77.756393
18820.019531	-78.057571
18863.085938	-77.939682
18906.152344	-78.084557
18949.218750	-77.993187
18992.285156	-77.826096
19035.351562	-77.757713
19078.417969	-77.832016
19121.484375	-77.837082
19164.550781	-78.225525
19207.617188	-78.710358
19250.683594	-78.140045
19293.750000	-78.490669
19336.816406	-78.418724
19379.882812	-78.581436
19422.949219	-78.154091
19466.015625	-78.309128
19509.082031	-78.330002
19552.148438	-78.410027
19595.214844	-78.491783
19638.281250	-78.243538
19681.347656	-78.498138
19724.414062	-78.507713
19767.480469	-78.703850
19810.546875	-79.045807
19853.613281	-79.003380
19896.679688	-78.569534
19939.746094	-78.816742
19982.812500	-78.554741
20025.878906	-78.990700
20068.945312	-79.189217
20112.011719	-78.903221
20155.078125	-79.097618
20198.144531	-79.651398
20241.210938	-79.516975
20284.277344	-79.545357
20327.343750	-79.224030
20370.410156	-79.397194
20413.476562	-79.727905
20456.542969	-79.803131
20499.609375	-79.486702
20542.675781	-79.773209
20585.742188	-79.304390
20628.808594	-79.091507
20671.875000	-79.594276
20714.941406	-79.638496
20758.007812	-79.615913
20801.074219	-79.855293
20844.140625	-80.013916
20887.207031	-80.157700
20930.273438	-80.235146
20973.339844	-79.675728
21016.406250	-80.075546
21059.472656	-80.553040
21102.539062	-80.504822
21145.605469	-80.832397
21188.671875	-80.241951
21231.738281	-80.528000
21274.804688	-80.464935
21317.871094	-80.807556
21360.937500	-81.029350
21404.003906	-80.980972
21447.070312	-80.997536
21490.136719	-81.070206
21533.203125	-80.867020
21576.269531	-81.245491
21619.335938	-81.114471
21662.402344	-80.601227
21705.468750	-80.716812
21748.535156	-80.997589
21791.601562	-81.202896
21834.667969	-81.389740
21877.734375	-81.867874
21920.800781	-82.044350
21963.867188	-81.780785
22006.933594	-81.770180
