Frequency (Hz)	Level (dB)
43.066406	-26.308332
86.132812	-22.265589
129.199219	-20.322010
172.265625	-19.188152
215.332031	-19.182055
258.398438	-19.438929
301.464844	-20.045820
344.531250	-20.750360
387.597656	-21.036606
430.664062	-21.601837
473.730469	-22.172483
516.796875	-22.319517
559.863281	-22.392973
602.929688	-22.117567
645.996094	-22.327627
689.062500	-23.020309
732.128906	-22.736240
775.195312	-22.517162
818.261719	-22.257803
861.328125	-22.268175
904.394531	-22.942003
947.460938	-23.425945
990.527344	-22.865595
1033.593750	-23.126755
1076.660156	-23.258013
1119.726562	-23.391645
1162.792969	-23.702353
1205.859375	-22.947599
1248.925781	-22.786638
1291.992188	-23.392441
1335.058594	-23.774797
1378.125000	-23.416744
1421.191406	-23.965475
1464.257812	-24.065964
1507.324219	-23.826117
1550.390625	-23.830593
1593.457031	-24.147024
1636.523438	-24.226709
1679.589844	-23.948664
1722.656250	-24.155945
1765.722656	-24.658495
1808.789062	-24.756432
1851.855469	-24.184624
1894.921875	-24.622807
1937.988281	-24.818993
1981.054688	-25.167767
2024.121094	-25.660965
2067.187500	-25.546654
2110.253906	-25.601212
2153.320312	-25.106270
2196.386719	-25.293001
2239.453125	-25.503254
2282.519531	-25.828970
2325.585938	-25.642309
2368.652344	-25.676430
2411.718750	-25.788887
2454.785156	-26.140318
2497.851562	-26.272030
2540.917969	-26.659815
2583.984375	-26.442736
2627.050781	-26.130398
2670.117188	-26.621721
2713.183594	-26.570654
2756.250000	-26.887331
2799.316406	-26.837715
2842.382812	-26.987984
2885.449219	-27.268536
2928.515625	-27.300182
2971.582031	-27.439978
3014.648438	-27.654514
3057.714844	-27.574015
3100.781250	-27.904945
3143.847656	-28.117636
3186.914062	-27.695858
3229.980469	-27.600517
3273.046875	-28.595037
3316.113281	-28.474497
3359.179688	-27.986582
3402.246094	-28.066475
3445.312500	-28.414719
3488.378906	-28.962772
3531.445312	-28.723850
3574.511719	-28.803934
3617.578125	-29.533970
3660.644531	-28.879961
3703.710938	-29.275801
3746.777344	-29.497065
3789.843750	-29.833096
3832.910156	-29.473450
3875.976562	-29.331419
3919.042969	-29.593195
3962.109375	-29.583412
4005.175781	-29.625404
4048.242188	-29.672541
4091.308594	-30.150059
4134.375000	-30.238766
4177.441406	-29.843618
4220.507812	-29.783865
4263.574219	-30.450619
4306.640625	-30.554731
4349.707031	-30.525949
4392.773438	-30.490128
4435.839844	-30.961491
4478.906250	-31.114733
4521.972656	-31.035091
4565.039062	-31.027313
4608.105469	-31.101038
4651.171875	-31.322271
4694.238281	-31.216366
4737.304688	-31.127897
4780.371094	-31.284098
4823.437500	-31.847519
4866.503906	-32.176285
4909.570312	-32.042896
4952.636719	-31.463968
4995.703125	-31.677692
5038.769531	-32.300373
5081.835938	-32.432297
5124.902344	-32.398022
5167.968750	-32.433285
5211.035156	-32.784626
5254.101562	-33.082642
5297.167969	-33.448204
5340.234375	-32.964031
5383.300781	-32.701214
5426.367188	-33.090080
5469.433594	-33.280621
5512.500000	-33.067249
5555.566406	-33.137321
5598.632812	-33.059917
5641.699219	-33.112392
5684.765625	-33.714523
5727.832031	-33.726521
5770.898438	-33.762890
5813.964844	-34.100716
5857.031250	-34.234016
5900.097656	-34.390034
5943.164062	-34.035595
5986.230469	-34.092220
6029.296875	-34.343243
6072.363281	-34.559982
6115.429688	-34.338688
6158.496094	-34.453896
6201.562500	-34.758476
6244.628906	-34.784184
6287.695312	-34.961800
6330.761719	-35.195789
6373.828125	-34.801910
6416.894531	-34.920368
6459.960938	-34.809433
6503.027344	-35.196945
6546.093750	-35.647259
6589.160156	-35.454323
6632.226562	-35.459026
6675.292969	-35.715324
6718.359375	-35.715290
6761.425781	-35.674053
6804.492188	-35.612804
6847.558594	-35.478043
6890.625000	-35.946926
6933.691406	-35.924500
6976.757812	-36.387005
7019.824219	-36.632542
7062.890625	-36.806011
7105.957031	-36.749294
7149.023438	-36.726562
7192.089844	-36.665554
7235.156250	-36.527931
7278.222656	-36.742241
7321.289062	-37.324604
7364.355469	-37.158012
7407.421875	-37.048130
7450.488281	-37.126343
7493.554688	-37.537209
7536.621094	-37.727314
7579.687500	-37.310452
7622.753906	-37.443794
7665.820312	-37.454891
7708.886719	-37.854782
7751.953125	-38.077038
7795.019531	-37.802315
7838.085938	-37.919685
7881.152344	-37.627876
7924.218750	-37.663593
7967.285156	-38.123219
8010.351562	-38.019043
8053.417969	-37.840492
8096.484375	-38.027145
8139.550781	-38.163006
8182.617188	-38.141273
8225.683594	-38.167725
8268.750000	-38.291706
8311.816406	-38.482887
8354.882812	-38.946533
8397.949219	-39.164650
8441.015625	-39.241402
8484.082031	-39.002697
8527.148438	-39.243187
8570.214844	-39.466484
8613.281250	-38.712921
8656.347656	-38.761066
8699.414062	-39.467529
8742.480469	-39.863663
8785.546875	-39.541412
8828.613281	-39.608551
8871.679688	-39.747601
8914.746094	-39.784615
8957.812500	-39.777737
9000.878906	-39.726131
9043.945312	-39.902603
9087.011719	-39.826935
9130.078125	-40.054150
9173.144531	-40.105217
9216.210938	-39.816448
9259.277344	-39.897083
9302.343750	-40.513527
9345.410156	-40.720409
9388.476562	-41.196136
9431.542969	-41.283283
9474.609375	-41.299210
9517.675781	-41.312897
9560.742188	-40.926563
9603.808594	-40.752571
9646.875000	-41.179970
9689.941406	-41.616398
9733.007812	-41.328506
9776.074219	-41.140980
9819.140625	-41.129650
9862.207031	-41.134212
9905.273438	-41.653175
9948.339844	-41.623425
9991.406250	-41.737854
10034.472656	-41.823383
10077.539062	-41.913403
10120.605469	-42.027374
10163.671875	-41.889553
10206.738281	-42.420906
10249.804688	-42.656456
10292.871094	-41.957432
10335.937500	-41.784153
10379.003906	-41.992447
10422.070312	-42.128174
10465.136719	-42.389519
10508.203125	-42.360924
10551.269531	-42.470402
10594.335938	-42.851261
10637.402344	-42.579865
10680.468750	-42.842751
10723.535156	-43.008144
10766.601562	-42.986427
10809.667969	-42.886623
10852.734375	-42.805733
10895.800781	-43.202751
10938.867188	-43.356678
10981.933594	-43.279758
11025.000000	-42.963753
11068.066406	-42.815712
11111.132812	-42.881348
11154.199219	-43.489456
11197.265625	-43.862621
11240.332031	-43.887001
11283.398438	-44.026737
11326.464844	-43.667339
11369.531250	-43.914974
11412.597656	-44.458424
11455.664062	-43.937172
11498.730469	-44.025433
11541.796875	-44.010166
11584.863281	-44.657314
11627.929688	-44.397743
11670.996094	-44.608170
11714.062500	-44.561028
11757.128906	-44.407265
11800.195312	-44.421268
11843.261719	-44.520550
11886.328125	-44.204090
11929.394531	-44.447834
11972.460938	-44.976761
12015.527344	-45.127583
12058.593750	-45.153019
12101.660156	-44.924995
12144.726562	-44.741867
12187.792969	-44.775723
12230.859375	-45.125957
12273.925781	-45.214001
12316.992188	-45.308598
12360.058594	-45.663116
12403.125000	-45.657593
12446.191406	-45.846058
12489.257812	-45.621868
12532.324219	-45.647099
12575.390625	-45.744007
12618.457031	-46.039234
12661.523438	-46.083706
12704.589844	-46.063663
12747.656250	-46.239929
12790.722656	-46.332966
12833.789062	-46.659290
12876.855469	-46.186195
12919.921875	-45.921135
12962.988281	-46.413475
13006.054688	-46.399754
13049.121094	-46.698826
13092.187500	-46.443970
13135.253906	-46.178791
13178.320312	-47.028152
13221.386719	-46.743507
13264.453125	-46.416290
13307.519531	-46.539188
13350.585938	-46.841877
13393.652344	-47.305672
13436.718750	-47.271912
13479.785156	-47.190033
13522.851562	-47.348583
13565.917969	-47.308720
13608.984375	-47.382809
13652.050781	-47.325565
13695.117188	-47.588280
13738.183594	-47.288731
13781.250000	-47.153168
13824.316406	-47.026581
13867.382812	-47.650028
13910.449219	-47.852104
13953.515625	-47.377003
13996.582031	-47.744942
14039.648438	-47.891197
14082.714844	-48.239922
14125.781250	-47.706871
14168.847656	-48.084877
14211.914062	-48.630367
14254.980469	-48.610001
14298.046875	-48.375389
14341.113281	-48.090462
14384.179688	-48.227203
14427.246094	-48.460968
14470.312500	-48.378700
14513.378906	-48.521564
14556.445312	-48.656864
14599.511719	-48.530167
14642.578125	-48.216557
14685.644531	-49.026535
14728.710938	-49.156239
14771.777344	-48.864311
14814.843750	-49.047894
14857.910156	-48.698292
14900.976562	-48.876579
14944.042969	-49.105103
14987.109375	-49.076683
15030.175781	-48.866745
15073.242188	-49.391159
15116.308594	-49.641441
15159.375000	-49.397934
15202.441406	-49.463123
15245.507812	-49.668148
15288.574219	-49.533409
15331.640625	-49.465580
15374.707031	-50.027889
15417.773438	-49.691906
15460.839844	-49.680050
15503.906250	-49.886356
15546.972656	-49.882401
15590.039062	-49.911427
15633.105469	-50.225597
15676.171875	-50.139458
15719.238281	-50.390450
15762.304688	-50.484741
15805.371094	-50.485069
15848.437500	-50.363415
15891.503906	-50.041344
15934.570312	-50.260715
15977.636719	-50.402885
16020.703125	-50.559959
16063.769531	-50.555023
16106.835938	-50.844120
16149.902344	-50.636997
16192.968750	-50.282688
16236.035156	-50.873722
16279.101562	-51.051956
16322.167969	-50.830452
16365.234375	-50.805729
16408.300781	-50.817863
16451.367188	-50.902660
16494.433594	-50.659031
16537.500000	-51.014542
16580.566406	-51.632420
16623.632812	-51.342175
16666.699219	-51.504562
16709.765625	-51.473305
16752.832031	-51.341335
16795.898438	-51.256721
16838.964844	-51.178242
16882.031250	-51.462646
16925.097656	-51.753731
16968.164062	-51.658592
17011.230469	-51.349808
17054.296875	-51.829491
17097.363281	-52.165104
17140.429688	-51.824444
17183.496094	-51.888634
17226.562500	-52.147499
17269.628906	-52.423584
17312.695312	-52.782013
17355.761719	-52.789215
17398.828125	-52.667095
17441.894531	-52.167732
17484.960938	-51.794167
17528.027344	-52.027546
17571.093750	-52.213814
17614.160156	-52.525326
17657.226562	-52.979908
17700.292969	-52.881565
17743.359375	-52.958923
17786.425781	-53.063000
17829.492188	-52.825752
17872.558594	-52.967178
17915.625000	-53.208687
17958.691406	-53.378605
18001.757812	-53.529819
18044.824219	-53.527905
18087.890625	-53.461586
18130.957031	-53.452621
18174.023438	-53.590542
18217.089844	-53.699913
18260.156250	-53.806091
18303.222656	-53.990974
18346.289062	-53.675262
18389.355469	-53.756191
18432.421875	-53.529034
18475.488281	-53.686668
18518.554688	-53.664711
18561.621094	-53.628193
18604.687500	-53.826725
18647.753906	-53.827145
18690.820312	-54.012760
18733.886719	-54.107849
18776.953125	-54.232098
18820.019531	-54.628765
18863.085938	-54.042084
18906.152344	-54.029724
18949.218750	-54.137676
18992.285156	-54.379219
19035.351562	-54.244320
19078.417969	-54.479168
19121.484375	-54.284851
19164.550781	-54.103626
19207.617188	-54.615307
19250.683594	-54.551907
19293.750000	-55.003674
19336.816406	-55.235550
19379.882812	-55.174683
19422.949219	-54.721935
19466.015625	-54.786743
19509.082031	-54.462189
19552.148438	-54.309811
19595.214844	-54.941326
19638.281250	-55.055614
19681.347656	-54.793953
19724.414062	-54.774975
19767.480469	-54.782494
19810.546875	-55.078499
19853.613281	-55.335213
19896.679688	-55.570877
19939.746094	-55.414810
19982.812500	-55.186825
20025.878906	-55.153446
20068.945312	-55.500778
20112.011719	-55.749035
20155.078125	-55.787041
20198.144531	-56.351143
20241.210938	-56.054821
20284.277344	-55.983387
20327.343750	-56.013966
20370.410156	-56.124569
20413.476562	-56.032608
20456.542969	-56.139763
20499.609375	-56.088043
20542.675781	-56.177696
20585.742188	-56.167305
20628.808594	-56.646141
20671.875000	-56.269295
20714.941406	-56.572464
20758.007812	-56.432270
20801.074219	-56.680126
20844.140625	-56.900578
20887.207031	-56.770550
20930.273438	-56.710079
20973.339844	-56.487064
21016.406250	-56.346069
21059.472656	-56.462135
21102.539062	-56.724133
21145.605469	-56.772953
21188.671875	-57.134617
21231.738281	-57.335983
21274.804688	-56.785229
21317.871094	-57.040825
21360.937500	-57.601925
21404.003906	-58.038616
21447.070312	-57.688671
21490.136719	-57.362034
21533.203125	-57.627960
21576.269531	-57.977421
21619.335938	-57.862667
21662.402344	-58.044407
21705.468750	-57.780647
21748.535156	-57.742004
21791.601562	-57.831993
21834.667969	-57.493248
21877.734375	-57.551346
21920.800781	-57.618626
21963.867188	-57.772999
22006.933594	-57.920250
