Frequency (Hz)	Level (dB)
43.066406	-26.401388
86.132812	-22.213299
129.199219	-20.759884
172.265625	-19.614071
215.332031	-19.263990
258.398438	-19.571638
301.464844	-20.185926
344.531250	-20.276760
387.597656	-20.484848
430.664062	-20.650192
473.730469	-20.882561
516.796875	-21.106932
559.863281	-20.938461
602.929688	-20.713348
645.996094	-20.515421
689.062500	-20.781639
732.128906	-20.881287
775.195312	-20.901615
818.261719	-20.702505
861.328125	-20.839537
904.394531	-21.077763
947.460938	-20.918623
990.527344	-20.858490
1033.593750	-20.955500
1076.660156	-20.523510
1119.726562	-20.288250
1162.792969	-20.315876
1205.859375	-21.063639
1248.925781	-21.050140
1291.992188	-21.273529
1335.058594	-20.763145
1378.125000	-20.495153
1421.191406	-20.784702
1464.257812	-21.067129
1507.324219	-21.054482
1550.390625	-20.900925
1593.457031	-21.117298
1636.523438	-21.227007
1679.589844	-21.418346
1722.656250	-21.179655
1765.722656	-21.138218
1808.789062	-21.703163
1851.855469	-21.660051
1894.921875	-22.263086
1937.988281	-21.702372
1981.054688	-21.493870
2024.121094	-21.535625
2067.187500	-21.311144
2110.253906	-21.433319
2153.320312	-21.889153
2196.386719	-22.130165
2239.453125	-21.766405
2282.519531	-21.785807
2325.585938	-21.802443
2368.652344	-22.157566
2411.718750	-22.439550
2454.785156	-22.791344
2497.851562	-22.682837
2540.917969	-22.558722
2583.984375	-22.762442
2627.050781	-22.926994
2670.117188	-22.786390
2713.183594	-22.529123
2756.250000	-22.677063
2799.316406	-23.059580
2842.382812	-23.310974
2885.449219	-23.383387
2928.515625	-23.038816
2971.582031	-23.426607
3014.648438	-23.741648
3057.714844	-23.401340
3100.781250	-23.206341
3143.847656	-23.245686
3186.914062	-23.256582
3229.980469	-23.785856
3273.046875	-24.036386
3316.113281	-23.814167
3359.179688	-24.388824
3402.246094	-24.503490
3445.312500	-24.110651
3488.378906	-24.282173
3531.445312	-24.537502
3574.511719	-24.572298
3617.578125	-24.701605
3660.644531	-24.418627
3703.710938	-24.571306
3746.777344	-24.813992
3789.843750	-24.768373
3832.910156	-25.206083
3875.976562	-25.142956
3919.042969	-25.117243
3962.109375	-25.250225
4005.175781	-25.462355
4048.242188	-25.954487
4091.308594	-25.696392
4134.375000	-25.443775
4177.441406	-25.480108
4220.507812	-25.871775
4263.574219	-25.849951
4306.640625	-26.270887
4349.707031	-26.237000
4392.773438	-26.240255
4435.839844	-26.315104
4478.906250	-26.292282
4521.972656	-26.534246
4565.039062	-26.682653
4608.105469	-26.942045
4651.171875	-26.914856
4694.238281	-27.054796
4737.304688	-26.718538
4780.371094	-26.804447
4823.437500	-26.827219
4866.503906	-26.790905
4909.570312	-27.134598
4952.636719	-27.578815
4995.703125	-27.501066
5038.769531	-27.755287
5081.835938	-27.534510
5124.902344	-27.447939
5167.968750	-27.542765
5211.035156	-27.435411
5254.101562	-27.840528
5297.167969	-27.866692
5340.234375	-27.957123
5383.300781	-28.019981
5426.367188	-28.269995
5469.433594	-28.316971
5512.500000	-28.522095
5555.566406	-28.322807
5598.632812	-28.423286
5641.699219	-28.733051
5684.765625	-28.606159
5727.832031	-28.695257
5770.898438	-28.968691
5813.964844	-28.829897
5857.031250	-29.025396
5900.097656	-29.328405
5943.164062	-29.026173
5986.230469	-29.312452
6029.296875	-29.255318
6072.363281	-29.551052
6115.429688	-29.682163
6158.496094	-29.867115
6201.562500	-29.709719
6244.628906	-30.030096
6287.695312	-30.003971
6330.761719	-30.056295
6373.828125	-30.026579
6416.894531	-29.804777
6459.960938	-29.799520
6503.027344	-30.172815
6546.093750	-30.719786
6589.160156	-31.115337
6632.226562	-31.303900
6675.292969	-30.899565
6718.359375	-30.822693
6761.425781	-30.929277
6804.492188	-31.205595
6847.558594	-30.908508
6890.625000	-31.079687
6933.691406	-30.950306
6976.757812	-30.994553
7019.824219	-31.347668
7062.890625	-31.712137
7105.957031	-32.047466
7149.023438	-31.995607
7192.089844	-32.187542
7235.156250	-31.838047
7278.222656	-31.886248
7321.289062	-31.934847
7364.355469	-31.968929
7407.421875	-32.422951
7450.488281	-32.415024
7493.554688	-32.349392
7536.621094	-32.416534
7579.687500	-32.643368
7622.753906	-32.839924
7665.820312	-32.630276
7708.886719	-32.576706
7751.953125	-32.172653
7795.019531	-32.576672
7838.085938	-32.803360
7881.152344	-33.117828
7924.218750	-33.323357
7967.285156	-33.206165
8010.351562	-33.248779
8053.417969	-33.318863
8096.484375	-33.352665
8139.550781	-33.518391
8182.617188	-33.506393
8225.683594	-33.741299
8268.750000	-34.159412
8311.816406	-33.734947
8354.882812	-33.822716
8397.949219	-33.982525
8441.015625	-34.389549
8484.082031	-34.332840
8527.148438	-34.283527
8570.214844	-34.674843
8613.281250	-34.625980
8656.347656	-34.430485
8699.414062	-34.339008
8742.480469	-34.779938
8785.546875	-34.530014
8828.613281	-34.361485
8871.679688	-35.049454
8914.746094	-35.068172
8957.812500	-35.095203
9000.878906	-35.256031
9043.945312	-35.350185
9087.011719	-35.139336
9130.078125	-34.993675
9173.144531	-34.951191
9216.210938	-35.709736
9259.277344	-36.166985
9302.343750	-35.700508
9345.410156	-35.708790
9388.476562	-35.749336
9431.542969	-35.390602
9474.609375	-35.395077
9517.675781	-35.437664
9560.742188	-35.739285
9603.808594	-36.197411
9646.875000	-36.751419
9689.941406	-36.570351
9733.007812	-36.399990
9776.074219	-36.851677
9819.140625	-36.811584
9862.207031	-36.285519
9905.273438	-36.253288
9948.339844	-36.421104
9991.406250	-36.774605
10034.472656	-36.308212
10077.539062	-36.495407
10120.605469	-36.430710
10163.671875	-36.864277
10206.738281	-37.210335
10249.804688	-37.125076
10292.871094	-37.090736
10335.937500	-37.086624
10379.003906	-37.208115
10422.070312	-37.080879
10465.136719	-37.175663
10508.203125	-37.332344
10551.269531	-37.586956
10594.335938	-37.651024
10637.402344	-37.806633
10680.468750	-37.653111
10723.535156	-37.583893
10766.601562	-38.149635
10809.667969	-38.251919
10852.734375	-37.807785
10895.800781	-38.192982
10938.867188	-37.821693
10981.933594	-38.140327
11025.000000	-38.020504
11068.066406	-38.304607
11111.132812	-38.089046
11154.199219	-38.273663
11197.265625	-38.523224
11240.332031	-38.597012
11283.398438	-38.495762
11326.464844	-38.542831
11369.531250	-38.590176
11412.597656	-38.885517
11455.664062	-39.016102
11498.730469	-38.966179
11541.796875	-38.526691
11584.863281	-38.804440
11627.929688	-39.059406
11670.996094	-39.522980
11714.062500	-39.076263
11757.128906	-39.388977
11800.195312	-39.494823
11843.261719	-39.832699
11886.328125	-39.550411
11929.394531	-40.051289
11972.460938	-39.957817
12015.527344	-39.738277
12058.593750	-39.554646
12101.660156	-39.781456
12144.726562	-39.969158
12187.792969	-39.835789
12230.859375	-39.997021
12273.925781	-39.876537
12316.992188	-40.196609
12360.058594	-40.053890
12403.125000	-39.979435
12446.191406	-40.233265
12489.257812	-40.511543
12532.324219	-40.963009
12575.390625	-40.835445
12618.457031	-41.069893
12661.523438	-40.921997
12704.589844	-40.634102
12747.656250	-40.820152
12790.722656	-40.927120
12833.789062	-40.916100
12876.855469	-40.534195
12919.921875	-40.934761
12962.988281	-41.127995
13006.054688	-41.404728
13049.121094	-41.738289
13092.187500	-41.475834
13135.253906	-41.521027
13178.320312	-41.360405
13221.386719	-41.487095
13264.453125	-41.769917
13307.519531	-41.929977
13350.585938	-41.778862
13393.652344	-41.398052
13436.718750	-41.655430
13479.785156	-41.839355
13522.851562	-41.981564
13565.917969	-42.550468
13608.984375	-42.066978
13652.050781	-42.070442
13695.117188	-42.163326
13738.183594	-42.246269
13781.250000	-42.398392
13824.316406	-42.386379
13867.382812	-42.450935
13910.449219	-42.533775
13953.515625	-42.520378
13996.582031	-42.649502
14039.648438	-42.173599
14082.714844	-42.389614
14125.781250	-42.455349
14168.847656	-42.389088
14211.914062	-42.969662
14254.980469	-42.798790
14298.046875	-42.774529
14341.113281	-43.183090
14384.179688	-43.315731
14427.246094	-43.155830
14470.312500	-43.346760
14513.378906	-42.987820
14556.445312	-42.937401
14599.511719	-43.184654
14642.578125	-42.858521
14685.644531	-43.443001
14728.710938	-43.568413
14771.777344	-43.727261
14814.843750	-44.007637
14857.910156	-43.721043
14900.976562	-43.648357
14944.042969	-43.569016
14987.109375	-44.168793
15030.175781	-44.646023
15073.242188	-44.448601
15116.308594	-44.038979
15159.375000	-43.963505
15202.441406	-43.928009
15245.507812	-44.355656
15288.574219	-44.452076
15331.640625	-44.501339
15374.707031	-44.484432
15417.773438	-44.235828
15460.839844	-44.149200
15503.906250	-44.535137
15546.972656	-44.874657
15590.039062	-44.599350
15633.105469	-44.854145
15676.171875	-44.678482
15719.238281	-44.892231
15762.304688	-45.050339
15805.371094	-45.248112
15848.437500	-45.537708
15891.503906	-45.286240
15934.570312	-44.955269
15977.636719	-45.134312
16020.703125	-45.289391
16063.769531	-45.359173
16106.835938	-45.395664
16149.902344	-45.264919
16192.968750	-45.712139
16236.035156	-45.845547
16279.101562	-45.922726
16322.167969	-45.654308
16365.234375	-45.297699
16408.300781	-45.252510
16451.367188	-45.445282
16494.433594	-45.656128
16537.500000	-46.000809
16580.566406	-45.877308
16623.632812	-45.676506
16666.699219	-45.941143
16709.765625	-46.588322
16752.832031	-46.683044
16795.898438	-46.494781
16838.964844	-46.147243
16882.031250	-45.988338
16925.097656	-46.296310
16968.164062	-46.221035
17011.230469	-45.969131
17054.296875	-46.591400
17097.363281	-46.956093
17140.429688	-46.736084
17183.496094	-46.737885
17226.562500	-46.907497
17269.628906	-46.558372
17312.695312	-46.608997
17355.761719	-46.702961
17398.828125	-46.795650
17441.894531	-47.097191
17484.960938	-47.287029
17528.027344	-47.246540
17571.093750	-47.027977
17614.160156	-46.893913
17657.226562	-47.157394
17700.292969	-47.787262
17743.359375	-48.044403
17786.425781	-47.801647
17829.492188	-47.309254
17872.558594	-47.530506
17915.625000	-47.982342
17958.691406	-47.741646
18001.757812	-47.401886
18044.824219	-47.616886
18087.890625	-47.804039
18130.957031	-47.878143
18174.023438	-47.728035
18217.089844	-47.580460
18260.156250	-48.031910
18303.222656	-48.203682
18346.289062	-48.267792
18389.355469	-48.962936
18432.421875	-48.906345
18475.488281	-48.564144
18518.554688	-48.509518
18561.621094	-48.769985
18604.687500	-48.548771
18647.753906	-48.796413
18690.820312	-48.976437
18733.886719	-48.987732
18776.953125	-49.272583
18820.019531	-49.225628
18863.085938	-48.643715
18906.152344	-48.838737
18949.218750	-49.228111
18992.285156	-49.038258
19035.351562	-48.886547
19078.417969	-48.739662
19121.484375	-48.917271
19164.550781	-49.115005
19207.617188	-49.256107
19250.683594	-49.364964
19293.750000	-49.421814
19336.816406	-49.634960
19379.882812	-49.950100
19422.949219	-49.823826
19466.015625	-49.929958
19509.082031	-49.629883
19552.148438	-49.621834
19595.214844	-49.891830
19638.281250	-50.058891
19681.347656	-49.670399
19724.414062	-49.342545
19767.480469	-49.595318
19810.546875	-50.134537
19853.613281	-50.347794
19896.679688	-50.183563
19939.746094	-49.908817
19982.812500	-50.074318
20025.878906	-50.374229
20068.945312	-50.193626
20112.011719	-50.319801
20155.078125	-50.564404
20198.144531	-50.621479
20241.210938	-50.419041
20284.277344	-50.688461
20327.343750	-50.738770
20370.410156	-50.519608
20413.476562	-50.342247
20456.542969	-50.901497
20499.609375	-50.572716
20542.675781	-50.795589
20585.742188	-51.106777
20628.808594	-51.432606
20671.875000	-51.167595
20714.941406	-50.894657
20758.007812	-51.170906
20801.074219	-50.768921
20844.140625	-51.092163
20887.207031	-51.377518
20930.273438	-51.548199
20973.339844	-51.869022
21016.406250	-51.737465
21059.472656	-51.354191
21102.539062	-51.663563
21145.605469	-52.016621
21188.671875	-51.769550
21231.738281	-51.543575
21274.804688	-51.751881
21317.871094	-51.861717
21360.937500	-51.743362
21404.003906	-52.013550
21447.070312	-52.052261
21490.136719	-52.113060
21533.203125	-52.359188
21576.269531	-52.475834
21619.335938	-52.069756
21662.402344	-52.139851
21705.468750	-52.533127
21748.535156	-52.400581
21791.601562	-52.390022
21834.667969	-52.478172
21877.734375	-52.860809
21920.800781	-52.973248
21963.867188	-52.857159
22006.933594	-52.629368
