Frequency (Hz)	Level (dB)
43.066406	-28.127871
86.132812	-23.841322
129.199219	-22.108299
172.265625	-20.839108
215.332031	-19.641346
258.398438	-18.546082
301.464844	-18.588774
344.531250	-18.310198
387.597656	-18.077681
430.664062	-18.079523
473.730469	-17.662870
516.796875	-17.678082
559.863281	-18.084419
602.929688	-17.370804
645.996094	-17.614313
689.062500	-17.981941
732.128906	-17.834253
775.195312	-18.367504
818.261719	-18.463085
861.328125	-18.965557
904.394531	-18.981953
947.460938	-18.603048
990.527344	-18.569311
1033.593750	-18.680763
1076.660156	-18.590334
1119.726562	-18.590780
1162.792969	-19.181597
1205.859375	-19.094515
1248.925781	-19.054979
1291.992188	-18.823915
1335.058594	-19.367685
1378.125000	-19.526003
1421.191406	-19.674282
1464.257812	-20.020981
1507.324219	-19.829700
1550.390625	-19.962883
1593.457031	-20.471006
1636.523438	-20.802870
1679.589844	-20.237606
1722.656250	-20.203062
1765.722656	-20.154284
1808.789062	-20.730871
1851.855469	-20.721891
1894.921875	-20.457153
1937.988281	-20.824732
1981.054688	-21.703085
2024.121094	-21.601013
2067.187500	-21.129032
2110.253906	-20.953365
2153.320312	-21.212469
2196.386719	-21.356636
2239.453125	-21.370062
2282.519531	-21.211575
2325.585938	-20.935984
2368.652344	-21.436853
2411.718750	-21.970648
2454.785156	-21.892170
2497.851562	-22.027880
2540.917969	-21.725658
2583.984375	-21.849539
2627.050781	-22.011887
2670.117188	-22.444715
2713.183594	-22.141085
2756.250000	-22.202534
2799.316406	-22.373745
2842.382812	-22.437317
2885.449219	-22.031019
2928.515625	-22.497246
2971.582031	-23.080839
3014.648438	-23.722139
3057.714844	-23.701124
3100.781250	-22.993092
3143.847656	-22.738638
3186.914062	-23.248587
3229.980469	-23.230314
3273.046875	-23.885843
3316.113281	-23.650784
3359.179688	-23.656403
3402.246094	-23.681696
3445.312500	-23.633221
3488.378906	-24.264257
3531.445312	-24.360991
3574.511719	-24.057049
3617.578125	-23.757425
3660.644531	-23.732195
3703.710938	-23.508352
3746.777344	-24.178423
3789.843750	-24.451490
3832.910156	-24.034330
3875.976562	-24.319881
3919.042969	-24.443213
3962.109375	-24.996277
4005.175781	-24.527069
4048.242188	-24.269930
4091.308594	-24.307384
4134.375000	-24.090719
4177.441406	-24.644848
4220.507812	-25.176867
4263.574219	-25.121166
4306.640625	-25.040863
4349.707031	-24.666260
4392.773438	-24.603590
4435.839844	-25.023418
4478.906250	-25.200527
4521.972656	-25.307281
4565.039062	-25.509504
4608.105469	-25.309835
4651.171875	-25.731754
4694.238281	-25.496252
4737.304688	-25.919355
4780.371094	-25.475832
4823.437500	-25.163454
4866.503906	-25.509214
4909.570312	-26.058067
4952.636719	-25.969799
4995.703125	-25.942375
5038.769531	-26.011547
5081.835938	-26.060495
5124.902344	-26.212030
5167.968750	-25.845198
5211.035156	-25.536005
5254.101562	-25.958948
5297.167969	-26.445690
5340.234375	-25.763433
5383.300781	-25.941282
5426.367188	-26.593153
5469.433594	-26.679796
5512.500000	-27.269003
5555.566406	-27.083538
5598.632812	-26.574837
5641.699219	-26.585756
5684.765625	-26.623859
5727.832031	-26.550598
5770.898438	-27.115656
5813.964844	-26.615364
5857.031250	-26.559172
5900.097656	-26.830355
5943.164062	-26.823704
5986.230469	-26.811926
6029.296875	-27.057384
6072.363281	-27.059029
6115.429688	-26.514507
6158.496094	-27.104885
6201.562500	-27.399193
6244.628906	-27.387785
6287.695312	-27.252182
6330.761719	-27.123270
6373.828125	-27.233015
6416.894531	-27.101036
6459.960938	-27.070652
6503.027344	-27.295860
6546.093750	-27.967524
6589.160156	-27.512041
6632.226562	-27.989750
6675.292969	-28.298552
6718.359375	-28.161152
6761.425781	-28.308643
6804.492188	-28.295431
6847.558594	-28.229193
6890.625000	-28.008118
6933.691406	-27.887564
6976.757812	-27.617071
7019.824219	-27.794277
7062.890625	-27.979002
7105.957031	-28.166149
7149.023438	-28.458609
7192.089844	-28.047400
7235.156250	-28.372335
7278.222656	-28.657093
7321.289062	-28.649601
7364.355469	-28.310278
7407.421875	-28.399862
7450.488281	-28.574799
7493.554688	-29.219460
7536.621094	-29.535601
7579.687500	-29.191164
7622.753906	-29.518660
7665.820312	-29.010931
7708.886719	-28.907461
7751.953125	-28.747789
7795.019531	-29.032646
7838.085938	-28.868589
7881.152344	-29.138775
7924.218750	-29.003984
7967.285156	-29.781994
8010.351562	-30.052042
8053.417969	-29.925034
8096.484375	-29.244436
8139.550781	-29.052717
8182.617188	-28.962811
8225.683594	-29.296387
8268.750000	-29.281103
8311.816406	-29.033430
8354.882812	-29.240396
8397.949219	-29.201122
8441.015625	-29.851997
8484.082031	-30.269703
8527.148438	-30.265823
8570.214844	-30.256481
8613.281250	-29.568106
8656.347656	-29.461840
8699.414062	-29.790844
8742.480469	-30.445644
8785.546875	-29.646173
8828.613281	-29.703398
8871.679688	-30.685158
8914.746094	-30.472519
8957.812500	-30.113916
9000.878906	-30.589344
9043.945312	-30.121973
9087.011719	-30.091934
9130.078125	-30.319210
9173.144531	-30.133169
9216.210938	-30.428249
9259.277344	-30.493444
9302.343750	-30.393108
9345.410156	-30.954460
9388.476562	-30.820955
9431.542969	-30.736546
9474.609375	-30.725599
9517.675781	-30.601456
9560.742188	-30.759390
9603.808594	-30.968588
9646.875000	-31.654013
9689.941406	-30.964710
9733.007812	-30.646103
9776.074219	-30.914173
9819.140625	-31.091558
9862.207031	-30.940495
9905.273438	-31.128355
9948.339844	-31.126110
9991.406250	-31.359909
10034.472656	-31.613426
10077.539062	-31.239752
10120.605469	-30.847212
10163.671875	-31.503868
10206.738281	-31.684620
10249.804688	-31.765957
10292.871094	-31.469936
10335.937500	-31.365374
10379.003906	-31.593142
10422.070312	-31.793161
10465.136719	-31.473051
10508.203125	-31.835838
10551.269531	-32.128742
10594.335938	-31.773811
10637.402344	-31.825891
10680.468750	-32.120888
10723.535156	-31.608957
10766.601562	-31.791019
10809.667969	-31.824656
10852.734375	-31.685478
10895.800781	-32.027969
10938.867188	-31.834116
10981.933594	-32.165230
11025.000000	-32.147968
11068.066406	-32.638187
11111.132812	-32.795502
11154.199219	-32.772900
11197.265625	-32.656292
11240.332031	-32.352585
11283.398438	-32.087391
11326.464844	-32.218761
11369.531250	-32.264858
11412.597656	-32.521675
11455.664062	-32.484158
11498.730469	-32.810856
11541.796875	-32.885704
11584.863281	-32.395477
11627.929688	-32.626144
11670.996094	-33.118057
11714.062500	-33.009068
11757.128906	-32.657993
11800.195312	-32.979042
11843.261719	-33.309654
11886.328125	-33.042355
11929.394531	-33.492405
11972.460938	-33.331299
12015.527344	-32.890511
12058.593750	-32.846771
12101.660156	-32.425137
12144.726562	-33.094383
12187.792969	-33.753876
12230.859375	-33.251064
12273.925781	-33.265961
12316.992188	-33.689903
12360.058594	-33.660831
12403.125000	-33.854710
12446.191406	-33.803600
12489.257812	-33.822319
12532.324219	-34.048302
12575.390625	-33.892155
12618.457031	-33.466854
12661.523438	-33.817898
12704.589844	-33.059418
12747.656250	-33.119305
12790.722656	-34.028610
12833.789062	-34.307072
12876.855469	-34.064182
12919.921875	-33.427143
12962.988281	-33.799332
13006.054688	-34.177231
13049.121094	-33.678486
13092.187500	-33.664330
13135.253906	-33.980885
13178.320312	-34.437458
13221.386719	-34.453808
13264.453125	-34.863850
13307.519531	-34.533615
13350.585938	-34.207573
13393.652344	-34.498745
13436.718750	-34.884941
13479.785156	-34.607353
13522.851562	-34.094109
13565.917969	-34.119293
13608.984375	-34.703018
13652.050781	-35.519897
13695.117188	-35.481911
13738.183594	-35.225731
13781.250000	-34.730068
13824.316406	-34.249950
13867.382812	-34.639603
13910.449219	-34.906570
13953.515625	-35.113350
13996.582031	-35.039112
14039.648438	-35.169289
14082.714844	-35.016899
14125.781250	-35.415585
14168.847656	-35.386200
14211.914062	-35.688278
14254.980469	-35.755096
14298.046875	-34.630680
14341.113281	-34.765888
14384.179688	-35.432652
14427.246094	-35.461109
14470.312500	-35.716358
14513.378906	-35.814308
14556.445312	-35.773491
14599.511719	-35.827843
14642.578125	-35.945904
14685.644531	-36.257572
14728.710938	-35.819588
14771.777344	-35.982887
14814.843750	-36.087120
14857.910156	-35.303467
14900.976562	-35.550835
14944.042969	-35.759159
14987.109375	-35.739109
15030.175781	-36.038914
15073.242188	-36.377663
15116.308594	-36.334579
15159.375000	-36.497009
15202.441406	-36.419434
15245.507812	-36.238548
15288.574219	-36.467072
15331.640625	-36.515114
15374.707031	-36.935188
15417.773438	-36.885643
15460.839844	-36.525345
15503.906250	-36.007442
15546.972656	-35.872574
15590.039062	-36.559410
15633.105469	-37.127602
15676.171875	-36.844479
15719.238281	-36.902573
15762.304688	-37.067783
15805.371094	-36.840252
15848.437500	-36.216560
15891.503906	-36.617825
15934.570312	-36.703716
15977.636719	-36.666332
16020.703125	-36.942467
16063.769531	-37.242710
16106.835938	-37.083504
16149.902344	-36.629074
16192.968750	-36.373802
16236.035156	-36.851475
16279.101562	-36.951187
16322.167969	-37.481052
16365.234375	-37.769154
16408.300781	-37.153263
16451.367188	-37.063282
16494.433594	-37.116947
16537.500000	-37.316612
16580.566406	-37.642490
16623.632812	-37.583332
16666.699219	-37.296543
16709.765625	-37.576992
16752.832031	-37.579678
16795.898438	-37.567425
16838.964844	-37.743526
16882.031250	-37.699024
16925.097656	-37.712986
16968.164062	-37.529110
17011.230469	-37.454288
17054.296875	-37.435638
17097.363281	-38.379883
17140.429688	-38.470314
17183.496094	-37.993786
17226.562500	-38.311272
17269.628906	-38.298992
17312.695312	-38.311626
17355.761719	-37.857883
17398.828125	-37.963135
17441.894531	-37.539021
17484.960938	-37.360558
17528.027344	-37.914986
17571.093750	-38.421841
17614.160156	-37.962978
17657.226562	-38.085903
17700.292969	-38.340824
17743.359375	-38.569599
17786.425781	-38.328484
17829.492188	-38.236595
17872.558594	-38.587326
17915.625000	-39.085094
17958.691406	-39.023243
18001.757812	-39.269993
18044.824219	-38.436939
18087.890625	-38.230614
18130.957031	-38.364021
18174.023438	-38.348179
18217.089844	-38.599678
18260.156250	-39.180313
18303.222656	-39.039070
18346.289062	-39.053093
18389.355469	-39.091270
18432.421875	-38.639912
18475.488281	-38.720886
18518.554688	-39.547966
18561.621094	-39.698959
18604.687500	-39.287037
18647.753906	-39.372219
18690.820312	-39.669666
18733.886719	-39.995029
18776.953125	-39.381332
18820.019531	-39.600506
18863.085938	-39.332321
18906.152344	-39.413479
18949.218750	-39.343781
18992.285156	-39.178406
19035.351562	-39.007652
19078.417969	-39.426357
19121.484375	-39.897701
19164.550781	-39.403885
19207.617188	-39.333378
19250.683594	-39.671192
19293.750000	-39.730263
19336.816406	-39.827023
19379.882812	-40.062237
19422.949219	-39.687691
19466.015625	-39.575172
19509.082031	-39.656376
19552.148438	-39.775528
19595.214844	-39.909042
19638.281250	-40.823120
19681.347656	-40.133137
19724.414062	-39.395233
19767.480469	-39.813477
19810.546875	-40.477871
19853.613281	-40.817287
19896.679688	-40.080090
19939.746094	-39.660614
19982.812500	-39.701691
20025.878906	-39.634651
20068.945312	-39.789253
20112.011719	-39.904114
20155.078125	-40.079182
20198.144531	-40.641705
20241.210938	-40.539623
20284.277344	-40.449821
20327.343750	-40.305393
20370.410156	-40.169079
20413.476562	-40.172100
20456.542969	-40.228321
20499.609375	-40.377422
20542.675781	-41.002785
20585.742188	-40.755123
20628.808594	-41.300045
20671.875000	-41.407894
20714.941406	-41.095360
20758.007812	-40.879677
20801.074219	-40.987877
20844.140625	-41.424595
20887.207031	-41.549004
20930.273438	-40.928524
20973.339844	-40.925285
21016.406250	-41.118805
21059.472656	-41.477398
21102.539062	-41.507824
21145.605469	-41.738480
21188.671875	-41.022640
21231.738281	-41.463097
21274.804688	-42.331146
21317.871094	-42.141632
21360.937500	-41.635170
21404.003906	-41.907997
21447.070312	-42.059795
21490.136719	-42.144871
21533.203125	-42.606342
21576.269531	-42.429031
21619.335938	-42.038593
21662.402344	-42.012268
21705.468750	-42.498600
21748.535156	-42.852882
21791.601562	-42.466633
21834.667969	-42.163086
21877.734375	-42.148949
21920.800781	-41.839050
21963.867188	-42.008858
22006.933594	-41.855251
