Frequency (Hz)	Level (dB)
43.066406	-18.542395
86.132812	-23.154922
129.199219	-24.310734
172.265625	-24.986317
215.332031	-25.247698
258.398438	-26.246586
301.464844	-26.961378
344.531250	-26.815201
387.597656	-27.402946
430.664062	-28.275253
473.730469	-28.647478
516.796875	-28.857267
559.863281	-29.141685
602.929688	-28.724352
645.996094	-29.101856
689.062500	-29.851196
732.128906	-29.513195
775.195312	-30.246702
818.261719	-30.506481
861.328125	-31.126785
904.394531	-32.007504
947.460938	-32.323421
990.527344	-31.838108
1033.593750	-31.603882
1076.660156	-32.039261
1119.726562	-32.609577
1162.792969	-33.020428
1205.859375	-32.387203
1248.925781	-32.801182
1291.992188	-32.923523
1335.058594	-33.237152
1378.125000	-33.395042
1421.191406	-33.882465
1464.257812	-34.127045
1507.324219	-34.588722
1550.390625	-34.546635
1593.457031	-34.478889
1636.523438	-34.859249
1679.589844	-34.802666
1722.656250	-34.877625
1765.722656	-35.706448
1808.789062	-35.288383
1851.855469	-35.269947
1894.921875	-35.650810
1937.988281	-35.889305
1981.054688	-35.807659
2024.121094	-36.236397
2067.187500	-36.325336
2110.253906	-36.758560
2153.320312	-36.438934
2196.386719	-36.637821
2239.453125	-36.827751
2282.519531	-36.828651
2325.585938	-37.074718
2368.652344	-37.178097
2411.718750	-37.395195
2454.785156	-37.201145
2497.851562	-37.521400
2540.917969	-38.154095
2583.984375	-37.727116
2627.050781	-37.566277
2670.117188	-37.958122
2713.183594	-38.141983
2756.250000	-38.510242
2799.316406	-38.117390
2842.382812	-38.201862
2885.449219	-38.429390
2928.515625	-38.863628
2971.582031	-38.953880
3014.648438	-39.263714
3057.714844	-38.700703
3100.781250	-38.592567
3143.847656	-38.787910
3186.914062	-38.555134
3229.980469	-38.253876
3273.046875	-39.031132
3316.113281	-39.190346
3359.179688	-38.790520
3402.246094	-39.043362
3445.312500	-39.438766
3488.378906	-39.727554
3531.445312	-39.716621
3574.511719	-39.953594
3617.578125	-39.909073
3660.644531	-39.517086
3703.710938	-39.759209
3746.777344	-40.024155
3789.843750	-40.352631
3832.910156	-39.879452
3875.976562	-39.675884
3919.042969	-39.546940
3962.109375	-39.407154
4005.175781	-39.689926
4048.242188	-39.651237
4091.308594	-40.122963
4134.375000	-40.210846
4177.441406	-40.026787
4220.507812	-40.027653
4263.574219	-40.467503
4306.640625	-40.263615
4349.707031	-40.502930
4392.773438	-40.855278
4435.839844	-40.999748
4478.906250	-40.781597
4521.972656	-40.640030
4565.039062	-40.580219
4608.105469	-40.566101
4651.171875	-40.856133
4694.238281	-41.248425
4737.304688	-41.165569
4780.371094	-40.968189
4823.437500	-41.560036
4866.503906	-41.567959
4909.570312	-41.702133
4952.636719	-41.011620
4995.703125	-41.723091
5038.769531	-41.607334
5081.835938	-41.446831
5124.902344	-41.612293
5167.968750	-41.412636
5211.035156	-41.610008
5254.101562	-41.401669
5297.167969	-41.757744
5340.234375	-41.153645
5383.300781	-41.812260
5426.367188	-42.321667
5469.433594	-41.736824
5512.500000	-41.613773
5555.566406	-41.470970
5598.632812	-41.299126
5641.699219	-41.724857
5684.765625	-42.082516
5727.832031	-42.380604
5770.898438	-42.504513
5813.964844	-42.815220
5857.031250	-42.683044
5900.097656	-42.176182
5943.164062	-41.861324
5986.230469	-42.236511
6029.296875	-42.251637
6072.363281	-42.333469
6115.429688	-41.813404
6158.496094	-41.480465
6201.562500	-41.952988
6244.628906	-42.319752
6287.695312	-42.543808
6330.761719	-42.519623
6373.828125	-42.469906
6416.894531	-42.418480
6459.960938	-42.152420
6503.027344	-42.664131
6546.093750	-42.811886
6589.160156	-43.149490
6632.226562	-42.928356
6675.292969	-42.532318
6718.359375	-42.320045
6761.425781	-42.355804
6804.492188	-42.408691
6847.558594	-42.007488
6890.625000	-42.509190
6933.691406	-42.973587
6976.757812	-43.002495
7019.824219	-43.268593
7062.890625	-43.189713
7105.957031	-43.054501
7149.023438	-43.078255
7192.089844	-43.011887
7235.156250	-42.770191
7278.222656	-43.046520
7321.289062	-43.330860
7364.355469	-42.924210
7407.421875	-43.389542
7450.488281	-43.571362
7493.554688	-43.332714
7536.621094	-43.366638
7579.687500	-43.307365
7622.753906	-43.253002
7665.820312	-43.673969
7708.886719	-43.659439
7751.953125	-43.916042
7795.019531	-43.873432
7838.085938	-43.712589
7881.152344	-42.925564
7924.218750	-42.715935
7967.285156	-43.352856
8010.351562	-43.143715
8053.417969	-43.296825
8096.484375	-43.347519
8139.550781	-43.004429
8182.617188	-42.861893
8225.683594	-43.039841
8268.750000	-43.672729
8311.816406	-43.865540
8354.882812	-44.044228
8397.949219	-44.131939
8441.015625	-43.957703
8484.082031	-43.714001
8527.148438	-43.767048
8570.214844	-43.940044
8613.281250	-43.709793
8656.347656	-43.604755
8699.414062	-43.905327
8742.480469	-43.859386
8785.546875	-43.862278
8828.613281	-43.511482
8871.679688	-43.611618
8914.746094	-44.004475
8957.812500	-44.009159
9000.878906	-44.126858
9043.945312	-44.294979
9087.011719	-44.344418
9130.078125	-44.010487
9173.144531	-44.366974
9216.210938	-43.708344
9259.277344	-43.980022
9302.343750	-44.727573
9345.410156	-44.672848
9388.476562	-44.785912
9431.542969	-44.894855
9474.609375	-44.624168
9517.675781	-44.158379
9560.742188	-44.451530
9603.808594	-44.078365
9646.875000	-44.458839
9689.941406	-44.756794
9733.007812	-44.517162
9776.074219	-44.874805
9819.140625	-45.339615
9862.207031	-45.060532
9905.273438	-45.204632
9948.339844	-44.570869
9991.406250	-44.592312
10034.472656	-45.127506
10077.539062	-44.341621
10120.605469	-44.520508
10163.671875	-44.438122
10206.738281	-45.103527
10249.804688	-45.476414
10292.871094	-44.602489
10335.937500	-44.384045
10379.003906	-44.686543
10422.070312	-44.543964
10465.136719	-44.392284
10508.203125	-44.271851
10551.269531	-44.105442
10594.335938	-44.518402
10637.402344	-44.826195
10680.468750	-44.876606
10723.535156	-44.560143
10766.601562	-44.559849
10809.667969	-44.332737
10852.734375	-44.383587
10895.800781	-44.819073
10938.867188	-44.896790
10981.933594	-44.613003
11025.000000	-44.599628
11068.066406	-44.258617
11111.132812	-44.430309
11154.199219	-44.821972
11197.265625	-44.912479
11240.332031	-45.392166
11283.398438	-45.200737
11326.464844	-44.474052
11369.531250	-44.326324
11412.597656	-44.887360
11455.664062	-45.004524
11498.730469	-44.991421
11541.796875	-45.094669
11584.863281	-45.660709
11627.929688	-45.347832
11670.996094	-44.944942
11714.062500	-44.908569
11757.128906	-45.108799
11800.195312	-45.205421
11843.261719	-45.193989
11886.328125	-44.813847
11929.394531	-45.151112
11972.460938	-45.403980
12015.527344	-45.411152
12058.593750	-44.754688
12101.660156	-44.809738
12144.726562	-44.972752
12187.792969	-45.367413
12230.859375	-45.278019
12273.925781	-45.526695
12316.992188	-45.664925
12360.058594	-45.809711
12403.125000	-45.624653
12446.191406	-45.351692
12489.257812	-45.722984
12532.324219	-45.403027
12575.390625	-45.498268
12618.457031	-45.444099
12661.523438	-45.749260
12704.589844	-45.986610
12747.656250	-45.580635
12790.722656	-45.772415
12833.789062	-46.110134
12876.855469	-45.467876
12919.921875	-45.365314
12962.988281	-45.294582
13006.054688	-45.151363
13049.121094	-45.709507
13092.187500	-45.471367
13135.253906	-45.327133
13178.320312	-46.348877
13221.386719	-46.155014
13264.453125	-45.316814
13307.519531	-45.399120
13350.585938	-45.384159
13393.652344	-45.983902
13436.718750	-45.818268
13479.785156	-45.632263
13522.851562	-45.845016
13565.917969	-46.070389
13608.984375	-46.651417
13652.050781	-45.622940
13695.117188	-46.131508
13738.183594	-46.301140
13781.250000	-45.695747
13824.316406	-45.660206
13867.382812	-45.966690
13910.449219	-45.977093
13953.515625	-45.653934
13996.582031	-46.088223
14039.648438	-46.603596
14082.714844	-46.553391
14125.781250	-45.997471
14168.847656	-46.253155
14211.914062	-46.967625
14254.980469	-46.515251
14298.046875	-46.311413
14341.113281	-45.966389
14384.179688	-46.076733
14427.246094	-46.412407
14470.312500	-46.360989
14513.378906	-46.142551
14556.445312	-46.131599
14599.511719	-46.245300
14642.578125	-45.778969
14685.644531	-46.092812
14728.710938	-46.749043
14771.777344	-46.478771
14814.843750	-46.249855
14857.910156	-45.999027
14900.976562	-45.778648
14944.042969	-46.093918
14987.109375	-45.837749
15030.175781	-45.957455
15073.242188	-46.602619
15116.308594	-46.518475
15159.375000	-46.509281
15202.441406	-46.841232
15245.507812	-46.917770
15288.574219	-46.046158
15331.640625	-45.939312
15374.707031	-46.423199
15417.773438	-46.516392
15460.839844	-46.588161
15503.906250	-46.537067
15546.972656	-46.876942
15590.039062	-47.042133
15633.105469	-47.080593
15676.171875	-46.980293
15719.238281	-46.602440
15762.304688	-46.493500
15805.371094	-47.024490
15848.437500	-46.847687
15891.503906	-46.176838
15934.570312	-46.326881
15977.636719	-46.284424
16020.703125	-46.447468
16063.769531	-46.727428
16106.835938	-46.428276
16149.902344	-46.175159
16192.968750	-46.877075
16236.035156	-47.139309
16279.101562	-47.253075
16322.167969	-46.630283
16365.234375	-46.716537
16408.300781	-46.499756
16451.367188	-46.604172
16494.433594	-46.593155
16537.500000	-47.211273
16580.566406	-47.346992
16623.632812	-46.875481
16666.699219	-46.637253
16709.765625	-46.684963
16752.832031	-46.762798
16795.898438	-46.365803
16838.964844	-46.234512
16882.031250	-46.300095
16925.097656	-46.864769
16968.164062	-46.821163
17011.230469	-46.515621
17054.296875	-46.652042
17097.363281	-46.844975
17140.429688	-46.523312
17183.496094	-46.747780
17226.562500	-47.065159
17269.628906	-46.999344
17312.695312	-47.466198
17355.761719	-47.591942
17398.828125	-47.508331
17441.894531	-46.853878
17484.960938	-46.583199
17528.027344	-46.555122
17571.093750	-47.107182
17614.160156	-47.102474
17657.226562	-47.104427
17700.292969	-47.377880
17743.359375	-47.523399
17786.425781	-47.705620
17829.492188	-47.583099
17872.558594	-47.364582
17915.625000	-47.280933
17958.691406	-47.828663
18001.757812	-47.818096
18044.824219	-47.550926
18087.890625	-47.336147
18130.957031	-47.198658
18174.023438	-47.726532
18217.089844	-47.628712
18260.156250	-47.315666
18303.222656	-47.170174
18346.289062	-46.936913
18389.355469	-47.715923
18432.421875	-47.779530
18475.488281	-47.492840
18518.554688	-47.037148
18561.621094	-46.833591
18604.687500	-47.306801
18647.753906	-47.607651
18690.820312	-47.655083
18733.886719	-47.647812
18776.953125	-47.679592
18820.019531	-47.901104
18863.085938	-47.636261
18906.152344	-48.015144
18949.218750	-47.608700
18992.285156	-47.161991
19035.351562	-47.320095
19078.417969	-47.367599
19121.484375	-47.359192
19164.550781	-47.595276
19207.617188	-47.561668
19250.683594	-47.482365
19293.750000	-47.699532
19336.816406	-48.126080
19379.882812	-47.482632
19422.949219	-47.432552
19466.015625	-47.441841
19509.082031	-47.005825
19552.148438	-47.355362
19595.214844	-47.460175
19638.281250	-47.480736
19681.347656	-47.016167
19724.414062	-47.397259
19767.480469	-47.696678
19810.546875	-48.109116
19853.613281	-47.813923
19896.679688	-47.531902
19939.746094	-48.124336
19982.812500	-47.746754
20025.878906	-47.003586
20068.945312	-47.026398
20112.011719	-47.474911
20155.078125	-47.716038
20198.144531	-48.390171
20241.210938	-47.943829
20284.277344	-47.833477
20327.343750	-48.058025
20370.410156	-48.192471
20413.476562	-47.629597
20456.542969	-47.557808
20499.609375	-47.940262
20542.675781	-47.860516
20585.742188	-48.300156
20628.808594	-48.958878
20671.875000	-48.155617
20714.941406	-48.075367
20758.007812	-48.322506
20801.074219	-48.574612
20844.140625	-48.475208
20887.207031	-48.364388
20930.273438	-48.677166
20973.339844	-48.181541
21016.406250	-48.130859
21059.472656	-47.996407
21102.539062	-48.553688
21145.605469	-48.992985
21188.671875	-48.788425
21231.738281	-48.333408
21274.804688	-48.227936
21317.871094	-48.400616
21360.937500	-48.478714
21404.003906	-49.238815
21447.070312	-49.038391
21490.136719	-48.850216
21533.203125	-48.721901
21576.269531	-49.366329
21619.335938	-49.327374
21662.402344	-49.299145
21705.468750	-49.334312
21748.535156	-50.230221
21791.601562	-50.625889
21834.667969	-50.377819
21877.734375	-51.195778
21920.800781	-52.006641
21963.867188	-52.803089
22006.933594	-53.358353
