Frequency (Hz)	Level (dB)
43.066406	-23.966034
86.132812	-26.251049
129.199219	-23.711960
172.265625	-23.612625
215.332031	-23.905832
258.398438	-23.909624
301.464844	-24.181225
344.531250	-24.543951
387.597656	-24.820559
430.664062	-24.859692
473.730469	-25.197033
516.796875	-25.006914
559.863281	-25.368982
602.929688	-25.224718
645.996094	-25.744310
689.062500	-26.316975
732.128906	-26.493311
775.195312	-27.200514
818.261719	-27.805031
861.328125	-28.689127
904.394531	-28.725334
947.460938	-28.623053
990.527344	-28.905718
1033.593750	-29.068483
1076.660156	-29.415501
1119.726562	-29.298195
1162.792969	-29.627676
1205.859375	-30.387360
1248.925781	-31.135574
1291.992188	-30.916845
1335.058594	-31.378437
1378.125000	-31.679749
1421.191406	-32.192966
1464.257812	-32.493824
1507.324219	-32.509106
1550.390625	-32.777821
1593.457031	-33.629158
1636.523438	-33.899555
1679.589844	-33.838089
1722.656250	-33.587109
1765.722656	-34.055775
1808.789062	-34.650948
1851.855469	-34.808361
1894.921875	-35.020069
1937.988281	-35.437912
1981.054688	-36.007992
2024.121094	-35.809879
2067.187500	-35.998363
2110.253906	-36.054558
2153.320312	-36.536457
2196.386719	-36.746487
2239.453125	-37.073715
2282.519531	-36.851009
2325.585938	-36.788654
2368.652344	-37.368610
2411.718750	-37.635548
2454.785156	-38.122913
2497.851562	-37.921513
2540.917969	-37.787704
2583.984375	-38.301754
2627.050781	-38.794914
2670.117188	-38.991043
2713.183594	-38.871883
2756.250000	-38.997482
2799.316406	-39.046143
2842.382812	-39.364571
2885.449219	-39.458981
2928.515625	-39.540627
2971.582031	-40.242725
3014.648438	-40.259933
3057.714844	-40.259762
3100.781250	-40.487820
3143.847656	-40.115566
3186.914062	-40.734581
3229.980469	-41.040039
3273.046875	-40.881268
3316.113281	-40.377655
3359.179688	-40.613235
3402.246094	-41.280624
3445.312500	-41.362778
3488.378906	-41.817982
3531.445312	-41.698288
3574.511719	-41.791042
3617.578125	-42.225773
3660.644531	-42.009407
3703.710938	-41.670364
3746.777344	-42.158607
3789.843750	-42.477524
3832.910156	-42.625435
3875.976562	-42.404240
3919.042969	-43.112270
3962.109375	-43.791737
4005.175781	-43.415550
4048.242188	-43.523567
4091.308594	-43.608688
4134.375000	-43.442013
4177.441406	-43.539452
4220.507812	-43.888729
4263.574219	-43.716942
4306.640625	-43.891262
4349.707031	-43.895985
4392.773438	-43.865791
4435.839844	-44.375889
4478.906250	-44.301685
4521.972656	-44.515472
4565.039062	-44.124172
4608.105469	-44.461475
4651.171875	-45.344662
4694.238281	-45.069450
4737.304688	-44.269619
4780.371094	-44.339916
4823.437500	-44.488987
4866.503906	-45.127930
4909.570312	-44.780918
4952.636719	-44.923950
4995.703125	-44.998875
5038.769531	-45.537010
5081.835938	-45.343296
5124.902344	-44.973305
5167.968750	-45.004253
5211.035156	-44.824749
5254.101562	-45.819622
5297.167969	-45.755817
5340.234375	-45.623329
5383.300781	-45.495647
5426.367188	-45.712616
5469.433594	-46.183414
5512.500000	-45.719639
5555.566406	-45.974476
5598.632812	-46.142620
5641.699219	-46.595592
5684.765625	-46.687424
5727.832031	-47.031467
5770.898438	-47.077782
5813.964844	-47.301270
5857.031250	-46.765533
5900.097656	-47.068501
5943.164062	-46.957184
5986.230469	-46.934105
6029.296875	-46.591705
6072.363281	-47.343708
6115.429688	-47.872772
6158.496094	-47.735725
6201.562500	-48.460342
6244.628906	-47.229500
6287.695312	-47.457546
6330.761719	-47.395443
6373.828125	-46.552185
6416.894531	-46.565281
6459.960938	-46.563519
6503.027344	-47.022224
6546.093750	-48.431408
6589.160156	-49.133133
6632.226562	-48.236252
6675.292969	-48.162418
6718.359375	-47.477268
6761.425781	-48.170757
6804.492188	-47.078552
6847.558594	-47.086540
6890.625000	-48.172886
6933.691406	-48.031288
6976.757812	-47.850922
7019.824219	-47.883038
7062.890625	-48.364960
7105.957031	-47.856941
7149.023438	-48.548893
7192.089844	-47.911739
7235.156250	-47.867840
7278.222656	-47.288433
7321.289062	-47.864716
7364.355469	-47.800537
7407.421875	-47.701023
7450.488281	-48.052116
7493.554688	-48.760418
7536.621094	-48.927143
7579.687500	-49.948753
7622.753906	-49.763344
7665.820312	-48.875874
7708.886719	-49.052990
7751.953125	-48.614487
7795.019531	-48.137299
7838.085938	-48.495712
7881.152344	-49.627361
7924.218750	-49.150345
7967.285156	-48.405399
8010.351562	-49.313690
8053.417969	-49.089092
8096.484375	-48.999172
8139.550781	-49.506397
8182.617188	-49.988392
8225.683594	-49.931152
8268.750000	-50.022877
8311.816406	-50.284691
8354.882812	-49.929188
8397.949219	-49.971310
8441.015625	-50.333378
8484.082031	-50.027214
8527.148438	-49.723740
8570.214844	-49.143719
8613.281250	-49.228310
8656.347656	-51.004387
8699.414062	-49.825756
8742.480469	-50.776585
8785.546875	-48.610111
8828.613281	-48.085449
8871.679688	-49.620525
8914.746094	-49.921745
8957.812500	-50.300453
9000.878906	-50.951645
9043.945312	-50.979145
9087.011719	-50.435680
9130.078125	-50.521626
9173.144531	-50.098469
9216.210938	-50.006416
9259.277344	-49.423611
9302.343750	-48.948315
9345.410156	-50.476368
9388.476562	-50.769547
9431.542969	-50.007389
9474.609375	-50.639954
9517.675781	-50.829708
9560.742188	-50.092670
9603.808594	-50.779789
9646.875000	-50.274303
9689.941406	-51.567844
9733.007812	-51.249409
9776.074219	-51.158726
9819.140625	-50.385117
9862.207031	-49.857037
9905.273438	-50.466831
9948.339844	-50.780605
9991.406250	-51.696621
10034.472656	-50.685131
10077.539062	-50.253460
10120.605469	-49.987209
10163.671875	-50.062649
10206.738281	-50.119205
10249.804688	-50.032894
10292.871094	-50.711815
10335.937500	-51.968140
10379.003906	-51.535435
10422.070312	-51.144764
10465.136719	-49.976265
10508.203125	-50.059998
10551.269531	-51.059277
10594.335938	-51.071377
10637.402344	-51.005066
10680.468750	-50.551743
10723.535156	-50.666538
10766.601562	-51.282589
10809.667969	-51.615894
10852.734375	-51.038418
10895.800781	-51.546680
10938.867188	-51.302402
10981.933594	-50.856274
11025.000000	-51.321266
11068.066406	-50.835777
11111.132812	-51.626698
11154.199219	-50.776131
11197.265625	-50.328678
11240.332031	-51.309761
11283.398438	-51.076778
11326.464844	-51.369545
11369.531250	-51.415302
11412.597656	-51.356293
11455.664062	-51.626328
11498.730469	-50.788822
11541.796875	-51.063046
11584.863281	-50.928360
11627.929688	-51.391911
11670.996094	-50.696453
11714.062500	-50.410583
11757.128906	-50.912121
11800.195312	-51.470810
11843.261719	-52.130329
11886.328125	-51.659359
11929.394531	-51.630981
11972.460938	-52.611298
12015.527344	-52.168121
12058.593750	-51.823357
12101.660156	-50.944740
12144.726562	-50.720776
12187.792969	-50.716057
12230.859375	-50.281273
12273.925781	-51.588245
12316.992188	-51.628849
12360.058594	-51.177128
12403.125000	-51.991768
12446.191406	-50.921837
12489.257812	-50.037983
12532.324219	-51.559586
12575.390625	-52.678730
12618.457031	-52.589649
12661.523438	-52.495914
12704.589844	-51.913162
12747.656250	-52.266392
12790.722656	-52.220692
12833.789062	-51.297749
12876.855469	-52.142979
12919.921875	-52.687096
12962.988281	-51.202930
13006.054688	-51.372936
13049.121094	-52.439850
13092.187500	-52.559578
13135.253906	-52.030357
13178.320312	-51.250053
13221.386719	-50.681858
13264.453125	-51.235287
13307.519531	-51.519127
13350.585938	-51.940617
13393.652344	-51.972549
13436.718750	-51.311829
13479.785156	-52.121082
13522.851562	-52.244408
13565.917969	-51.360039
13608.984375	-51.385078
13652.050781	-50.505047
13695.117188	-51.360794
13738.183594	-51.535686
13781.250000	-52.952061
13824.316406	-53.613602
13867.382812	-52.224689
13910.449219	-52.154053
13953.515625	-52.245750
13996.582031	-53.048336
14039.648438	-52.253307
14082.714844	-51.755936
14125.781250	-51.488972
14168.847656	-51.978546
14211.914062	-52.935593
14254.980469	-53.024841
14298.046875	-52.600834
14341.113281	-52.563206
14384.179688	-52.386013
14427.246094	-52.433159
14470.312500	-51.681633
14513.378906	-51.363510
14556.445312	-51.260239
14599.511719	-51.080589
14642.578125	-51.820717
14685.644531	-51.778976
14728.710938	-52.412380
14771.777344	-51.968044
14814.843750	-51.809734
14857.910156	-51.842274
14900.976562	-52.290485
14944.042969	-52.155697
14987.109375	-53.212502
15030.175781	-53.259319
15073.242188	-53.316597
15116.308594	-52.444550
15159.375000	-51.807247
15202.441406	-52.278561
15245.507812	-52.979336
15288.574219	-51.720295
15331.640625	-51.518944
15374.707031	-52.570274
15417.773438	-52.480537
15460.839844	-52.293907
15503.906250	-52.185730
15546.972656	-53.613121
15590.039062	-53.029461
15633.105469	-52.605808
15676.171875	-52.951939
15719.238281	-51.952450
15762.304688	-52.839443
15805.371094	-53.051483
15848.437500	-53.306389
15891.503906	-52.863544
15934.570312	-52.323185
15977.636719	-52.111267
16020.703125	-52.337711
16063.769531	-52.302673
16106.835938	-52.819130
16149.902344	-53.582325
16192.968750	-54.528694
16236.035156	-53.509155
16279.101562	-53.549149
16322.167969	-53.270493
16365.234375	-52.627571
16408.300781	-52.929832
16451.367188	-52.902569
16494.433594	-53.058655
16537.500000	-54.467693
16580.566406	-53.366451
16623.632812	-52.888367
16666.699219	-53.066998
16709.765625	-54.111774
16752.832031	-53.462406
16795.898438	-53.048042
16838.964844	-52.969704
16882.031250	-54.023384
16925.097656	-54.092113
16968.164062	-53.444290
17011.230469	-53.980373
17054.296875	-53.407139
17097.363281	-53.567047
17140.429688	-53.491409
17183.496094	-53.939514
17226.562500	-52.774368
17269.628906	-52.553986
17312.695312	-52.877064
17355.761719	-53.653553
17398.828125	-54.214310
17441.894531	-53.741173
17484.960938	-54.387409
17528.027344	-53.969734
17571.093750	-54.151855
17614.160156	-53.039566
17657.226562	-53.042362
17700.292969	-53.406998
17743.359375	-53.594791
17786.425781	-54.608788
17829.492188	-52.697178
17872.558594	-52.336464
17915.625000	-52.759876
17958.691406	-52.947857
18001.757812	-52.902771
18044.824219	-53.897160
18087.890625	-54.724934
18130.957031	-54.146709
18174.023438	-53.860897
18217.089844	-53.490810
18260.156250	-53.010120
18303.222656	-53.064156
18346.289062	-54.072842
18389.355469	-54.494289
18432.421875	-54.306126
18475.488281	-54.348202
18518.554688	-53.908127
18561.621094	-53.974300
18604.687500	-55.141605
18647.753906	-54.651398
18690.820312	-54.387863
18733.886719	-53.563160
18776.953125	-53.473324
18820.019531	-53.033283
18863.085938	-52.318260
18906.152344	-52.861961
18949.218750	-54.599068
18992.285156	-54.447216
19035.351562	-53.996571
19078.417969	-53.969173
19121.484375	-53.063923
19164.550781	-52.841602
19207.617188	-53.243099
19250.683594	-54.128277
19293.750000	-53.566223
19336.816406	-53.537827
19379.882812	-54.454308
19422.949219	-53.515572
19466.015625	-52.333294
19509.082031	-52.893101
19552.148438	-54.165672
19595.214844	-55.532787
19638.281250	-54.963146
19681.347656	-53.039997
19724.414062	-54.017647
19767.480469	-54.437996
19810.546875	-53.934826
19853.613281	-55.638214
19896.679688	-55.632534
19939.746094	-54.628910
19982.812500	-54.520664
20025.878906	-54.589317
20068.945312	-54.586601
20112.011719	-54.356453
20155.078125	-54.395771
20198.144531	-53.964191
20241.210938	-54.080490
20284.277344	-53.654358
20327.343750	-54.727234
20370.410156	-54.581863
20413.476562	-54.574444
20456.542969	-55.568020
20499.609375	-54.952839
20542.675781	-54.451977
20585.742188	-54.369194
20628.808594	-54.484039
20671.875000	-53.451740
20714.941406	-53.903088
20758.007812	-54.403660
20801.074219	-54.017269
20844.140625	-53.831917
20887.207031	-54.949364
20930.273438	-55.570625
20973.339844	-55.253471
21016.406250	-55.611481
21059.472656	-55.302216
21102.539062	-53.401474
21145.605469	-53.839024
21188.671875	-54.694935
21231.738281	-53.608505
21274.804688	-53.137348
21317.871094	-54.616051
21360.937500	-54.175571
21404.003906	-54.370930
21447.070312	-55.216030
21490.136719	-56.006199
21533.203125	-55.882771
21576.269531	-55.478027
21619.335938	-55.386677
21662.402344	-55.508636
21705.468750	-57.362293
21748.535156	-57.012638
21791.601562	-55.667408
21834.667969	-55.759197
21877.734375	-57.165489
21920.800781	-58.775311
21963.867188	-59.917282
22006.933594	-59.327709
