Frequency (Hz)	Level (dB)
43.066406	-24.061110
86.132812	-18.962299
129.199219	-15.544592
172.265625	-15.155802
215.332031	-15.251531
258.398438	-15.252188
301.464844	-15.517645
344.531250	-16.139219
387.597656	-16.141232
430.664062	-16.379185
473.730469	-16.739559
516.796875	-16.972481
559.863281	-17.455233
602.929688	-17.275904
645.996094	-17.697746
689.062500	-18.747932
732.128906	-18.616108
775.195312	-18.587137
818.261719	-18.944792
861.328125	-18.681406
904.394531	-19.676458
947.460938	-20.673218
990.527344	-19.855810
1033.593750	-19.946472
1076.660156	-20.718422
1119.726562	-20.989544
1162.792969	-21.123104
1205.859375	-20.859781
1248.925781	-20.913757
1291.992188	-21.638548
1335.058594	-22.118200
1378.125000	-22.075701
1421.191406	-22.549702
1464.257812	-22.520079
1507.324219	-22.655056
1550.390625	-22.949192
1593.457031	-23.240641
1636.523438	-23.250261
1679.589844	-22.865250
1722.656250	-23.175798
1765.722656	-24.143297
1808.789062	-23.971050
1851.855469	-23.532131
1894.921875	-23.863770
1937.988281	-23.976290
1981.054688	-24.365835
2024.121094	-25.154560
2067.187500	-25.058207
2110.253906	-24.786291
2153.320312	-24.416359
2196.386719	-24.574598
2239.453125	-24.765894
2282.519531	-25.182932
2325.585938	-25.233370
2368.652344	-25.161261
2411.718750	-25.118460
2454.785156	-25.344034
2497.851562	-25.660269
2540.917969	-26.142958
2583.984375	-25.964121
2627.050781	-25.743464
2670.117188	-26.187435
2713.183594	-26.222162
2756.250000	-26.487692
2799.316406	-26.629827
2842.382812	-26.230328
2885.449219	-26.365826
2928.515625	-26.633430
2971.582031	-26.995605
3014.648438	-27.491417
3057.714844	-27.343992
3100.781250	-27.166178
3143.847656	-27.077173
3186.914062	-26.618626
3229.980469	-26.781416
3273.046875	-27.695169
3316.113281	-27.194855
3359.179688	-26.859005
3402.246094	-27.124594
3445.312500	-27.288069
3488.378906	-28.118309
3531.445312	-27.796402
3574.511719	-28.060541
3617.578125	-28.589798
3660.644531	-27.917292
3703.710938	-28.046782
3746.777344	-27.996876
3789.843750	-28.614237
3832.910156	-28.490631
3875.976562	-27.867582
3919.042969	-28.095945
3962.109375	-28.084696
4005.175781	-28.306494
4048.242188	-28.328329
4091.308594	-28.473341
4134.375000	-28.761431
4177.441406	-28.365152
4220.507812	-28.913073
4263.574219	-28.889446
4306.640625	-29.059416
4349.707031	-28.957808
4392.773438	-29.180014
4435.839844	-29.235205
4478.906250	-29.080400
4521.972656	-28.836002
4565.039062	-28.971451
4608.105469	-29.098219
4651.171875	-29.068539
4694.238281	-29.132908
4737.304688	-29.052086
4780.371094	-29.132587
4823.437500	-29.997051
4866.503906	-30.452948
4909.570312	-30.025860
4952.636719	-29.420406
4995.703125	-30.108328
5038.769531	-30.155319
5081.835938	-29.970100
5124.902344	-29.808174
5167.968750	-29.765785
5211.035156	-29.874678
5254.101562	-30.082769
5297.167969	-30.533262
5340.234375	-30.001936
5383.300781	-29.943350
5426.367188	-30.366791
5469.433594	-30.157198
5512.500000	-29.824352
5555.566406	-29.957054
5598.632812	-30.170282
5641.699219	-29.900431
5684.765625	-30.408113
5727.832031	-30.399462
5770.898438	-30.329529
5813.964844	-31.007492
5857.031250	-31.281351
5900.097656	-30.809320
5943.164062	-30.588692
5986.230469	-30.823713
6029.296875	-30.839113
6072.363281	-30.431999
6115.429688	-30.209616
6158.496094	-30.397203
6201.562500	-30.772923
6244.628906	-30.979441
6287.695312	-30.974331
6330.761719	-30.800297
6373.828125	-31.039618
6416.894531	-30.732559
6459.960938	-30.688038
6503.027344	-30.836529
6546.093750	-31.061729
6589.160156	-31.024897
6632.226562	-31.049294
6675.292969	-30.919243
6718.359375	-31.192690
6761.425781	-30.981255
6804.492188	-30.837831
6847.558594	-30.491385
6890.625000	-31.244196
6933.691406	-31.469671
6976.757812	-31.839037
7019.824219	-31.770466
7062.890625	-31.988047
7105.957031	-31.685606
7149.023438	-31.295895
7192.089844	-31.728003
7235.156250	-31.485044
7278.222656	-31.686804
7321.289062	-31.966051
7364.355469	-31.953775
7407.421875	-31.667137
7450.488281	-31.858015
7493.554688	-32.344666
7536.621094	-32.308311
7579.687500	-31.443319
7622.753906	-31.942350
7665.820312	-32.273136
7708.886719	-32.132294
7751.953125	-32.432816
7795.019531	-32.580269
7838.085938	-32.428535
7881.152344	-31.765444
7924.218750	-31.812296
7967.285156	-32.297073
8010.351562	-32.106022
8053.417969	-31.978552
8096.484375	-32.157646
8139.550781	-31.843103
8182.617188	-31.724979
8225.683594	-31.931519
8268.750000	-32.389843
8311.816406	-32.499859
8354.882812	-32.892975
8397.949219	-32.608299
8441.015625	-32.314926
8484.082031	-32.271328
8527.148438	-32.507584
8570.214844	-33.045158
8613.281250	-32.149315
8656.347656	-32.419628
8699.414062	-32.498100
8742.480469	-32.713810
8785.546875	-32.576962
8828.613281	-32.542622
8871.679688	-32.561447
8914.746094	-32.741970
8957.812500	-33.052544
9000.878906	-32.517963
9043.945312	-32.985096
9087.011719	-32.755135
9130.078125	-32.656174
9173.144531	-32.779446
9216.210938	-32.797081
9259.277344	-32.562321
9302.343750	-32.777718
9345.410156	-33.194439
9388.476562	-33.461208
9431.542969	-33.816639
9474.609375	-34.273869
9517.675781	-33.687122
9560.742188	-33.273289
9603.808594	-33.064114
9646.875000	-33.510635
9689.941406	-33.601818
9733.007812	-33.476994
9776.074219	-33.569305
9819.140625	-33.721657
9862.207031	-33.642689
9905.273438	-34.057442
9948.339844	-33.385342
9991.406250	-34.002136
10034.472656	-33.732361
10077.539062	-33.382339
10120.605469	-33.461079
10163.671875	-33.379139
10206.738281	-33.889576
10249.804688	-34.143379
10292.871094	-33.573357
10335.937500	-33.525204
10379.003906	-33.723293
10422.070312	-33.543720
10465.136719	-33.390949
10508.203125	-33.325947
10551.269531	-33.495567
10594.335938	-34.207336
10637.402344	-33.879959
10680.468750	-33.958752
10723.535156	-33.645069
10766.601562	-33.688747
10809.667969	-33.555916
10852.734375	-33.462856
10895.800781	-34.119827
10938.867188	-34.032227
10981.933594	-33.653152
11025.000000	-33.787174
11068.066406	-34.097279
11111.132812	-33.787033
11154.199219	-33.742714
11197.265625	-34.018909
11240.332031	-34.802635
11283.398438	-34.450470
11326.464844	-33.831306
11369.531250	-33.760521
11412.597656	-34.262787
11455.664062	-34.006409
11498.730469	-33.910019
11541.796875	-33.822472
11584.863281	-34.951260
11627.929688	-34.874596
11670.996094	-34.278465
11714.062500	-34.443825
11757.128906	-34.518456
11800.195312	-34.424026
11843.261719	-34.385120
11886.328125	-33.995773
11929.394531	-34.666534
11972.460938	-35.116512
12015.527344	-35.315922
12058.593750	-34.683651
12101.660156	-34.193142
12144.726562	-34.624535
12187.792969	-34.567230
12230.859375	-34.691135
12273.925781	-34.820759
12316.992188	-34.862923
12360.058594	-35.330746
12403.125000	-34.860439
12446.191406	-34.845295
12489.257812	-34.511189
12532.324219	-34.428692
12575.390625	-34.540394
12618.457031	-34.947842
12661.523438	-35.322067
12704.589844	-35.235527
12747.656250	-35.289928
12790.722656	-35.500824
12833.789062	-35.567390
12876.855469	-34.794113
12919.921875	-34.878521
12962.988281	-35.104210
13006.054688	-34.873924
13049.121094	-35.486591
13092.187500	-35.073246
13135.253906	-34.716156
13178.320312	-36.223850
13221.386719	-35.306042
13264.453125	-34.779781
13307.519531	-35.060024
13350.585938	-35.180496
13393.652344	-35.172623
13436.718750	-35.045151
13479.785156	-35.300426
13522.851562	-35.440796
13565.917969	-35.635353
13608.984375	-35.617577
13652.050781	-35.482059
13695.117188	-35.762772
13738.183594	-35.590290
13781.250000	-35.334465
13824.316406	-35.189732
13867.382812	-35.773296
13910.449219	-35.704994
13953.515625	-35.242424
13996.582031	-35.347065
14039.648438	-35.873909
14082.714844	-36.417946
14125.781250	-35.752983
14168.847656	-35.774258
14211.914062	-36.322994
14254.980469	-36.478840
14298.046875	-36.174770
14341.113281	-35.533833
14384.179688	-35.259571
14427.246094	-35.772038
14470.312500	-35.857502
14513.378906	-35.705235
14556.445312	-35.834846
14599.511719	-36.051052
14642.578125	-35.537315
14685.644531	-36.050655
14728.710938	-36.467331
14771.777344	-36.509098
14814.843750	-36.327164
14857.910156	-35.775337
14900.976562	-35.638279
14944.042969	-36.113644
14987.109375	-35.731407
15030.175781	-36.028664
15073.242188	-36.315769
15116.308594	-36.658234
15159.375000	-36.637062
15202.441406	-36.712883
15245.507812	-36.695354
15288.574219	-36.271645
15331.640625	-36.649693
15374.707031	-36.576439
15417.773438	-36.233471
15460.839844	-36.462334
15503.906250	-36.652550
15546.972656	-36.630497
15590.039062	-36.955048
15633.105469	-37.188290
15676.171875	-36.344635
15719.238281	-36.356171
15762.304688	-36.963448
15805.371094	-36.537857
15848.437500	-36.381695
15891.503906	-36.147106
15934.570312	-36.303070
15977.636719	-36.187363
16020.703125	-36.685123
16063.769531	-36.579128
16106.835938	-37.016460
16149.902344	-36.848034
16192.968750	-36.495071
16236.035156	-36.893173
16279.101562	-36.810989
16322.167969	-36.630955
16365.234375	-36.987019
16408.300781	-36.666729
16451.367188	-36.975399
16494.433594	-36.831818
16537.500000	-37.159576
16580.566406	-37.715652
16623.632812	-36.853699
16666.699219	-36.810802
16709.765625	-36.616268
16752.832031	-36.777908
16795.898438	-37.327900
16838.964844	-36.758331
16882.031250	-36.919823
16925.097656	-37.468914
16968.164062	-37.302162
17011.230469	-36.685513
17054.296875	-37.140709
17097.363281	-37.473293
17140.429688	-37.104313
17183.496094	-37.029671
17226.562500	-37.170925
17269.628906	-37.639164
17312.695312	-37.631119
17355.761719	-38.080883
17398.828125	-37.728603
17441.894531	-37.422539
17484.960938	-36.849556
17528.027344	-36.812199
17571.093750	-37.253479
17614.160156	-37.576157
17657.226562	-37.756824
17700.292969	-37.636059
17743.359375	-37.958580
17786.425781	-38.209209
17829.492188	-38.062630
17872.558594	-37.634869
17915.625000	-38.046833
17958.691406	-38.148056
18001.757812	-38.172398
18044.824219	-38.069740
18087.890625	-38.046829
18130.957031	-38.194584
18174.023438	-38.559315
18217.089844	-38.507542
18260.156250	-38.417110
18303.222656	-38.257317
18346.289062	-37.968895
18389.355469	-38.571903
18432.421875	-38.498489
18475.488281	-38.303371
18518.554688	-37.918919
18561.621094	-37.636627
18604.687500	-38.386982
18647.753906	-38.320641
18690.820312	-38.676231
18733.886719	-38.424110
18776.953125	-38.328945
18820.019531	-38.714485
18863.085938	-38.337086
18906.152344	-38.111599
18949.218750	-38.139305
18992.285156	-38.236954
19035.351562	-38.325050
19078.417969	-38.065777
19121.484375	-38.253433
19164.550781	-38.273529
19207.617188	-38.499794
19250.683594	-38.380219
19293.750000	-38.859695
19336.816406	-39.035252
19379.882812	-38.810719
19422.949219	-38.417259
19466.015625	-39.002720
19509.082031	-38.306675
19552.148438	-38.045345
19595.214844	-38.690338
19638.281250	-38.625462
19681.347656	-38.585567
19724.414062	-38.049221
19767.480469	-38.155121
19810.546875	-38.446346
19853.613281	-38.950089
19896.679688	-39.166336
19939.746094	-39.048592
19982.812500	-38.934895
20025.878906	-38.560997
20068.945312	-38.865891
20112.011719	-39.164150
20155.078125	-39.336014
20198.144531	-39.724930
20241.210938	-39.318340
20284.277344	-39.282352
20327.343750	-39.057125
20370.410156	-39.059372
20413.476562	-39.088703
20456.542969	-39.017685
20499.609375	-39.466633
20542.675781	-39.458714
20585.742188	-39.321499
20628.808594	-39.805969
20671.875000	-39.130112
20714.941406	-39.521057
20758.007812	-39.230354
20801.074219	-39.571953
20844.140625	-39.890198
20887.207031	-39.943798
20930.273438	-39.916080
20973.339844	-39.618816
21016.406250	-39.590511
21059.472656	-39.503719
21102.539062	-39.537117
21145.605469	-39.652988
21188.671875	-39.719894
21231.738281	-40.070656
21274.804688	-39.777134
21317.871094	-39.655300
21360.937500	-39.843777
21404.003906	-40.242474
21447.070312	-40.560661
21490.136719	-40.007679
21533.203125	-40.176762
21576.269531	-40.305557
21619.335938	-40.030006
21662.402344	-40.430481
21705.468750	-40.925709
21748.535156	-41.327534
21791.601562	-41.462833
21834.667969	-41.041901
21877.734375	-41.347313
21920.800781	-41.911339
21963.867188	-42.157410
22006.933594	-42.189388
