Frequency (Hz)	Level (dB)
43.066406	-23.660822
86.132812	-18.571386
129.199219	-15.143098
172.265625	-14.598412
215.332031	-15.265695
258.398438	-15.476843
301.464844	-15.578857
344.531250	-15.671571
387.597656	-15.808671
430.664062	-15.989914
473.730469	-16.246120
516.796875	-16.989658
559.863281	-16.707380
602.929688	-16.297897
645.996094	-16.883411
689.062500	-17.394058
732.128906	-16.823696
775.195312	-17.085964
818.261719	-17.218143
861.328125	-17.683748
904.394531	-18.155304
947.460938	-18.377131
990.527344	-18.560869
1033.593750	-19.001099
1076.660156	-19.016249
1119.726562	-18.944244
1162.792969	-19.202391
1205.859375	-19.178099
1248.925781	-19.245283
1291.992188	-19.851139
1335.058594	-20.322514
1378.125000	-19.964401
1421.191406	-20.253864
1464.257812	-20.697245
1507.324219	-20.176119
1550.390625	-20.465166
1593.457031	-20.806536
1636.523438	-20.559471
1679.589844	-20.552029
1722.656250	-21.322351
1765.722656	-21.034672
1808.789062	-20.978447
1851.855469	-20.857523
1894.921875	-21.130350
1937.988281	-21.370266
1981.054688	-22.146156
2024.121094	-22.557957
2067.187500	-22.388245
2110.253906	-22.418659
2153.320312	-21.846594
2196.386719	-21.869858
2239.453125	-21.969479
2282.519531	-22.090904
2325.585938	-22.142525
2368.652344	-22.597109
2411.718750	-22.602123
2454.785156	-23.398926
2497.851562	-23.016716
2540.917969	-23.082621
2583.984375	-22.858519
2627.050781	-22.795177
2670.117188	-22.876205
2713.183594	-22.971630
2756.250000	-23.182541
2799.316406	-22.879061
2842.382812	-23.077070
2885.449219	-23.569847
2928.515625	-23.471579
2971.582031	-23.646542
3014.648438	-23.634281
3057.714844	-23.499744
3100.781250	-23.862030
3143.847656	-23.841009
3186.914062	-23.418102
3229.980469	-23.803019
3273.046875	-24.664198
3316.113281	-24.777115
3359.179688	-24.092464
3402.246094	-23.834961
3445.312500	-24.240717
3488.378906	-24.351395
3531.445312	-24.173225
3574.511719	-24.414351
3617.578125	-24.639467
3660.644531	-24.243500
3703.710938	-24.986275
3746.777344	-25.206421
3789.843750	-24.949083
3832.910156	-25.090790
3875.976562	-24.887980
3919.042969	-25.202576
3962.109375	-25.449150
4005.175781	-25.182264
4048.242188	-24.824013
4091.308594	-25.370850
4134.375000	-25.252748
4177.441406	-24.964293
4220.507812	-24.824211
4263.574219	-25.174849
4306.640625	-24.835537
4349.707031	-25.193602
4392.773438	-25.315453
4435.839844	-25.556257
4478.906250	-25.570211
4521.972656	-25.971489
4565.039062	-25.906221
4608.105469	-26.033485
4651.171875	-26.028389
4694.238281	-25.663837
4737.304688	-25.207428
4780.371094	-25.010422
4823.437500	-25.684660
4866.503906	-26.981556
4909.570312	-26.453323
4952.636719	-25.417269
4995.703125	-25.703056
5038.769531	-26.140469
5081.835938	-26.578770
5124.902344	-26.523731
5167.968750	-26.511917
5211.035156	-26.478514
5254.101562	-26.571594
5297.167969	-26.553106
5340.234375	-26.310841
5383.300781	-26.202974
5426.367188	-26.745718
5469.433594	-26.862545
5512.500000	-26.608395
5555.566406	-26.558640
5598.632812	-26.380684
5641.699219	-26.747654
5684.765625	-26.901123
5727.832031	-26.571180
5770.898438	-26.683922
5813.964844	-26.889200
5857.031250	-26.826601
5900.097656	-27.499132
5943.164062	-27.173426
5986.230469	-26.636898
6029.296875	-26.810383
6072.363281	-26.963930
6115.429688	-27.105793
6158.496094	-27.567862
6201.562500	-27.721296
6244.628906	-26.974661
6287.695312	-27.196472
6330.761719	-27.690533
6373.828125	-27.462759
6416.894531	-27.143478
6459.960938	-27.217348
6503.027344	-27.867054
6546.093750	-28.129957
6589.160156	-27.710812
6632.226562	-27.823164
6675.292969	-27.671442
6718.359375	-27.566364
6761.425781	-27.700634
6804.492188	-28.312500
6847.558594	-27.953182
6890.625000	-28.066620
6933.691406	-27.747139
6976.757812	-27.765268
7019.824219	-27.901112
7062.890625	-28.160219
7105.957031	-28.098364
7149.023438	-28.460800
7192.089844	-28.602024
7235.156250	-28.484100
7278.222656	-28.128490
7321.289062	-28.622171
7364.355469	-28.356899
7407.421875	-27.943241
7450.488281	-27.936966
7493.554688	-28.112288
7536.621094	-28.582487
7579.687500	-28.468227
7622.753906	-28.292755
7665.820312	-28.302568
7708.886719	-28.031664
7751.953125	-28.674706
7795.019531	-28.199707
7838.085938	-28.734501
7881.152344	-28.505064
7924.218750	-28.182774
7967.285156	-28.611317
8010.351562	-28.844536
8053.417969	-28.467508
8096.484375	-28.381979
8139.550781	-28.431192
8182.617188	-28.591331
8225.683594	-28.731537
8268.750000	-28.865602
8311.816406	-28.337502
8354.882812	-28.316248
8397.949219	-28.432022
8441.015625	-28.906565
8484.082031	-28.757439
8527.148438	-28.934071
8570.214844	-29.359600
8613.281250	-29.025232
8656.347656	-28.852253
8699.414062	-29.306784
8742.480469	-29.476717
8785.546875	-29.143127
8828.613281	-29.447615
8871.679688	-29.771645
8914.746094	-29.737095
8957.812500	-29.180067
9000.878906	-29.214193
9043.945312	-29.098118
9087.011719	-29.093168
9130.078125	-29.529579
9173.144531	-29.587345
9216.210938	-29.339033
9259.277344	-29.117126
9302.343750	-29.299335
9345.410156	-29.558437
9388.476562	-29.499949
9431.542969	-29.606409
9474.609375	-29.434879
9517.675781	-29.350714
9560.742188	-29.311300
9603.808594	-29.295073
9646.875000	-29.618484
9689.941406	-29.530157
9733.007812	-29.525579
9776.074219	-29.210516
9819.140625	-29.360151
9862.207031	-29.446171
9905.273438	-29.616863
9948.339844	-29.677366
9991.406250	-29.733412
10034.472656	-29.820164
10077.539062	-30.052441
10120.605469	-30.122477
10163.671875	-30.016321
10206.738281	-30.263760
10249.804688	-30.486778
10292.871094	-29.946905
10335.937500	-29.434532
10379.003906	-29.864309
10422.070312	-29.990358
10465.136719	-29.462580
10508.203125	-29.507849
10551.269531	-29.960682
10594.335938	-30.285702
10637.402344	-30.410763
10680.468750	-30.213383
10723.535156	-30.419249
10766.601562	-30.477779
10809.667969	-30.357105
10852.734375	-30.108252
10895.800781	-30.182039
10938.867188	-30.144650
10981.933594	-30.593489
11025.000000	-30.808346
11068.066406	-30.592070
11111.132812	-30.648212
11154.199219	-30.827707
11197.265625	-30.892885
11240.332031	-30.533653
11283.398438	-30.229376
11326.464844	-30.554834
11369.531250	-31.057146
11412.597656	-30.590475
11455.664062	-30.659664
11498.730469	-30.746269
11541.796875	-30.340870
11584.863281	-30.485481
11627.929688	-30.767538
11670.996094	-31.242262
11714.062500	-31.042927
11757.128906	-30.430201
11800.195312	-30.321783
11843.261719	-30.571022
11886.328125	-30.374765
11929.394531	-30.293341
11972.460938	-30.728155
12015.527344	-30.754105
12058.593750	-30.832817
12101.660156	-31.000275
12144.726562	-30.424271
12187.792969	-30.397160
12230.859375	-31.080164
12273.925781	-30.911503
12316.992188	-30.871462
12360.058594	-31.298632
12403.125000	-31.496099
12446.191406	-31.698877
12489.257812	-31.287371
12532.324219	-31.906120
12575.390625	-31.804379
12618.457031	-31.644884
12661.523438	-31.607466
12704.589844	-31.733648
12747.656250	-31.674009
12790.722656	-31.444963
12833.789062	-31.648592
12876.855469	-31.723177
12919.921875	-31.275597
12962.988281	-31.131531
13006.054688	-31.253519
13049.121094	-31.469500
13092.187500	-31.467058
13135.253906	-31.198357
13178.320312	-31.928690
13221.386719	-31.564104
13264.453125	-31.694424
13307.519531	-31.519432
13350.585938	-31.365156
13393.652344	-31.728804
13436.718750	-32.231422
13479.785156	-31.501083
13522.851562	-31.705221
13565.917969	-31.195866
13608.984375	-31.355494
13652.050781	-32.229000
13695.117188	-31.773859
13738.183594	-31.501453
13781.250000	-32.253914
13824.316406	-32.261726
13867.382812	-31.853029
13910.449219	-32.395943
13953.515625	-32.323830
13996.582031	-31.971905
14039.648438	-32.204967
14082.714844	-32.446903
14125.781250	-32.003674
14168.847656	-32.397060
14211.914062	-32.627491
14254.980469	-32.262764
14298.046875	-32.025829
14341.113281	-32.277138
14384.179688	-32.779018
14427.246094	-32.739174
14470.312500	-32.252060
14513.378906	-32.114079
14556.445312	-32.592735
14599.511719	-32.367699
14642.578125	-32.230732
14685.644531	-32.394608
14728.710938	-32.355637
14771.777344	-32.624840
14814.843750	-32.837837
14857.910156	-32.300137
14900.976562	-32.829681
14944.042969	-32.559212
14987.109375	-32.358524
15030.175781	-32.136852
15073.242188	-32.540283
15116.308594	-32.909710
15159.375000	-32.124023
15202.441406	-32.051720
15245.507812	-32.778500
15288.574219	-32.467514
15331.640625	-32.694740
15374.707031	-33.171951
15417.773438	-32.655853
15460.839844	-31.829166
15503.906250	-32.250092
15546.972656	-32.483604
15590.039062	-32.738026
15633.105469	-32.495838
15676.171875	-32.782421
15719.238281	-33.142368
15762.304688	-33.449169
15805.371094	-33.504601
15848.437500	-33.113235
15891.503906	-33.190105
15934.570312	-33.279110
15977.636719	-32.840435
16020.703125	-33.177994
16063.769531	-33.147301
16106.835938	-33.393238
16149.902344	-33.090084
16192.968750	-33.015282
16236.035156	-32.868122
16279.101562	-32.934937
16322.167969	-33.250584
16365.234375	-33.206463
16408.300781	-33.018383
16451.367188	-33.339512
16494.433594	-32.998249
16537.500000	-32.826542
16580.566406	-32.993416
16623.632812	-32.955589
16666.699219	-33.066608
16709.765625	-33.377193
16752.832031	-33.476040
16795.898438	-33.524086
16838.964844	-33.370705
16882.031250	-33.318176
16925.097656	-33.308804
16968.164062	-33.305374
17011.230469	-33.882820
17054.296875	-33.565517
17097.363281	-34.067818
17140.429688	-33.613762
17183.496094	-33.645283
17226.562500	-33.911274
17269.628906	-34.253212
17312.695312	-34.349773
17355.761719	-34.028084
17398.828125	-34.146435
17441.894531	-33.943958
17484.960938	-33.266525
17528.027344	-33.302513
17571.093750	-33.182991
17614.160156	-33.655411
17657.226562	-33.932606
17700.292969	-33.564075
17743.359375	-34.040970
17786.425781	-34.277657
17829.492188	-33.599182
17872.558594	-34.025085
17915.625000	-34.064659
17958.691406	-34.175140
18001.757812	-34.430580
18044.824219	-34.731339
18087.890625	-34.595402
18130.957031	-34.520012
18174.023438	-34.936829
18217.089844	-34.761314
18260.156250	-34.709564
18303.222656	-34.875889
18346.289062	-34.869530
18389.355469	-34.378353
18432.421875	-34.028679
18475.488281	-34.647854
18518.554688	-35.062965
18561.621094	-34.287903
18604.687500	-34.713181
18647.753906	-35.024597
18690.820312	-35.497124
18733.886719	-35.016556
18776.953125	-34.731495
18820.019531	-35.156479
18863.085938	-34.921932
18906.152344	-34.507862
18949.218750	-34.702370
18992.285156	-34.923073
19035.351562	-35.308693
19078.417969	-35.465282
19121.484375	-34.915707
19164.550781	-34.578800
19207.617188	-34.760391
19250.683594	-34.877468
19293.750000	-35.572796
19336.816406	-35.532120
19379.882812	-35.150196
19422.949219	-34.964378
19466.015625	-34.855240
19509.082031	-34.792171
19552.148438	-34.718876
19595.214844	-35.379612
19638.281250	-35.424953
19681.347656	-34.952312
19724.414062	-34.552727
19767.480469	-34.762703
19810.546875	-35.298264
19853.613281	-35.625114
19896.679688	-36.060097
19939.746094	-35.322575
19982.812500	-34.700375
20025.878906	-34.961845
20068.945312	-36.015785
20112.011719	-35.917915
20155.078125	-35.414478
20198.144531	-35.508572
20241.210938	-35.857197
20284.277344	-35.784443
20327.343750	-35.903313
20370.410156	-36.058132
20413.476562	-35.994881
20456.542969	-36.545601
20499.609375	-36.415585
20542.675781	-36.328251
20585.742188	-36.068527
20628.808594	-36.088303
20671.875000	-35.432957
20714.941406	-36.115227
20758.007812	-36.083199
20801.074219	-36.170967
20844.140625	-35.981895
20887.207031	-36.264267
20930.273438	-36.091930
20973.339844	-36.287060
21016.406250	-35.817741
21059.472656	-35.666542
21102.539062	-35.805508
21145.605469	-36.244167
21188.671875	-36.246872
21231.738281	-36.671535
21274.804688	-36.445053
21317.871094	-36.326351
21360.937500	-36.836082
21404.003906	-37.464539
21447.070312	-36.713116
21490.136719	-36.253338
21533.203125	-36.897732
21576.269531	-37.238731
21619.335938	-36.827595
21662.402344	-37.582874
21705.468750	-37.658203
21748.535156	-37.363434
21791.601562	-37.128258
21834.667969	-37.166355
21877.734375	-37.790703
21920.800781	-38.386250
21963.867188	-38.782562
22006.933594	-38.841576
