Frequency (Hz)	Level (dB)
43.066406	-18.780674
86.132812	-12.970571
129.199219	-9.930986
172.265625	-10.210529
215.332031	-11.238474
258.398438	-12.058153
301.464844	-12.671596
344.531250	-12.832314
387.597656	-13.306140
430.664062	-13.754745
473.730469	-14.225422
516.796875	-15.430531
559.863281	-15.589554
602.929688	-15.741056
645.996094	-15.935162
689.062500	-17.053795
732.128906	-17.439510
775.195312	-18.111450
818.261719	-18.116873
861.328125	-18.740704
904.394531	-19.603466
947.460938	-19.882046
990.527344	-19.594534
1033.593750	-19.839272
1076.660156	-20.753052
1119.726562	-21.611166
1162.792969	-22.599884
1205.859375	-22.539642
1248.925781	-22.186665
1291.992188	-23.254887
1335.058594	-23.516039
1378.125000	-22.894184
1421.191406	-23.787230
1464.257812	-24.650915
1507.324219	-24.642267
1550.390625	-24.346352
1593.457031	-24.295185
1636.523438	-25.265949
1679.589844	-25.517874
1722.656250	-25.592793
1765.722656	-25.701757
1808.789062	-25.983318
1851.855469	-27.102629
1894.921875	-27.521099
1937.988281	-27.559877
1981.054688	-27.776659
2024.121094	-28.305855
2067.187500	-28.083401
2110.253906	-28.773935
2153.320312	-28.924999
2196.386719	-29.216835
2239.453125	-29.387928
2282.519531	-28.955395
2325.585938	-29.203810
2368.652344	-29.845457
2411.718750	-30.451059
2454.785156	-30.485218
2497.851562	-30.886173
2540.917969	-31.406633
2583.984375	-31.241545
2627.050781	-31.202267
2670.117188	-31.260801
2713.183594	-31.813879
2756.250000	-32.407776
2799.316406	-32.092548
2842.382812	-32.454502
2885.449219	-32.647011
2928.515625	-32.588459
2971.582031	-32.817669
3014.648438	-33.324528
3057.714844	-33.487244
3100.781250	-33.462769
3143.847656	-33.660397
3186.914062	-33.813736
3229.980469	-33.975937
3273.046875	-33.972401
3316.113281	-33.999130
3359.179688	-34.383442
3402.246094	-35.144516
3445.312500	-34.795395
3488.378906	-34.840237
3531.445312	-35.295990
3574.511719	-35.497711
3617.578125	-35.991840
3660.644531	-36.159054
3703.710938	-36.610195
3746.777344	-35.742252
3789.843750	-36.359692
3832.910156	-36.661903
3875.976562	-36.313503
3919.042969	-36.499439
3962.109375	-36.745373
4005.175781	-36.682220
4048.242188	-37.092979
4091.308594	-37.229534
4134.375000	-37.424210
4177.441406	-37.728710
4220.507812	-37.628029
4263.574219	-37.336128
4306.640625	-37.900192
4349.707031	-38.501274
4392.773438	-38.840397
4435.839844	-39.447666
4478.906250	-39.238132
4521.972656	-39.061241
4565.039062	-39.532616
4608.105469	-39.137623
4651.171875	-39.219028
4694.238281	-39.570408
4737.304688	-39.483196
4780.371094	-39.427109
4823.437500	-39.401775
4866.503906	-39.725143
4909.570312	-40.017357
4952.636719	-39.917454
4995.703125	-40.445030
5038.769531	-40.910561
5081.835938	-41.257446
5124.902344	-41.889545
5167.968750	-41.619755
5211.035156	-41.030533
5254.101562	-41.320641
5297.167969	-41.456753
5340.234375	-41.690540
5383.300781	-41.889900
5426.367188	-42.518574
5469.433594	-42.319527
5512.500000	-42.330395
5555.566406	-42.499718
5598.632812	-41.991058
5641.699219	-41.470020
5684.765625	-42.113792
5727.832031	-42.485096
5770.898438	-42.638805
5813.964844	-42.930168
5857.031250	-43.403133
5900.097656	-43.472778
5943.164062	-43.293488
5986.230469	-43.265423
6029.296875	-43.640121
6072.363281	-43.795460
6115.429688	-43.804371
6158.496094	-43.524113
6201.562500	-43.595482
6244.628906	-44.269684
6287.695312	-44.360123
6330.761719	-44.198681
6373.828125	-44.361061
6416.894531	-44.170933
6459.960938	-44.973465
6503.027344	-45.335732
6546.093750	-44.710758
6589.160156	-45.157349
6632.226562	-45.094284
6675.292969	-45.451103
6718.359375	-46.200474
6761.425781	-45.895565
6804.492188	-45.823627
6847.558594	-45.611698
6890.625000	-45.811752
6933.691406	-46.199234
6976.757812	-45.894180
7019.824219	-45.749203
7062.890625	-46.275291
7105.957031	-46.794991
7149.023438	-47.192966
7192.089844	-46.984264
7235.156250	-47.012814
7278.222656	-47.126060
7321.289062	-47.090984
7364.355469	-47.140469
7407.421875	-47.202183
7450.488281	-46.974766
7493.554688	-47.761978
7536.621094	-47.959728
7579.687500	-47.524055
7622.753906	-47.568821
7665.820312	-47.854519
7708.886719	-48.158539
7751.953125	-48.694706
7795.019531	-48.695259
7838.085938	-48.546799
7881.152344	-48.291035
7924.218750	-48.743336
7967.285156	-49.269615
8010.351562	-49.332249
8053.417969	-49.160542
8096.484375	-49.090469
8139.550781	-49.061893
8182.617188	-48.935738
8225.683594	-49.190033
8268.750000	-49.247536
8311.816406	-49.420208
8354.882812	-49.525505
8397.949219	-50.187538
8441.015625	-50.425289
8484.082031	-50.447830
8527.148438	-50.622295
8570.214844	-50.786144
8613.281250	-50.417133
8656.347656	-50.935600
8699.414062	-51.022232
8742.480469	-50.860546
8785.546875	-50.760784
8828.613281	-51.134472
8871.679688	-51.503277
8914.746094	-51.060814
8957.812500	-51.730373
9000.878906	-51.762280
9043.945312	-51.440609
9087.011719	-51.593159
9130.078125	-52.049332
9173.144531	-52.612583
9216.210938	-52.199978
9259.277344	-51.395679
9302.343750	-52.466019
9345.410156	-52.686649
9388.476562	-52.548241
9431.542969	-52.729065
9474.609375	-52.832695
9517.675781	-53.099686
9560.742188	-53.739182
9603.808594	-53.163525
9646.875000	-52.874649
9689.941406	-53.442287
9733.007812	-53.359886
9776.074219	-53.392536
9819.140625	-54.180958
9862.207031	-54.323074
9905.273438	-54.655128
9948.339844	-54.650520
9991.406250	-54.410992
10034.472656	-55.034084
10077.539062	-54.698112
10120.605469	-54.586201
10163.671875	-54.631470
10206.738281	-55.149742
10249.804688	-55.225197
10292.871094	-54.782928
10335.937500	-54.870770
10379.003906	-55.442169
10422.070312	-55.405563
10465.136719	-55.898251
10508.203125	-55.199814
10551.269531	-55.131378
10594.335938	-56.389668
10637.402344	-56.046612
10680.468750	-56.153324
10723.535156	-56.305717
10766.601562	-55.943687
10809.667969	-55.803127
10852.734375	-55.863705
10895.800781	-56.499821
10938.867188	-56.829708
10981.933594	-57.258080
11025.000000	-57.824852
11068.066406	-57.231651
11111.132812	-57.711884
11154.199219	-58.451344
11197.265625	-58.437000
11240.332031	-58.382187
11283.398438	-57.879025
11326.464844	-57.841640
11369.531250	-57.846981
11412.597656	-58.308525
11455.664062	-58.514229
11498.730469	-58.208160
11541.796875	-58.981602
11584.863281	-59.140884
11627.929688	-59.131214
11670.996094	-59.761406
11714.062500	-59.359932
11757.128906	-58.795559
11800.195312	-59.496864
11843.261719	-60.016068
11886.328125	-59.943760
11929.394531	-60.128922
11972.460938	-60.666267
12015.527344	-60.362122
12058.593750	-60.558880
12101.660156	-60.646118
12144.726562	-60.994205
12187.792969	-61.665092
12230.859375	-61.482830
12273.925781	-61.585453
12316.992188	-61.206078
12360.058594	-61.051559
12403.125000	-61.400352
12446.191406	-62.011978
12489.257812	-62.437092
12532.324219	-61.853825
12575.390625	-62.150494
12618.457031	-62.255894
12661.523438	-62.317547
12704.589844	-62.383347
12747.656250	-62.773121
12790.722656	-63.685207
12833.789062	-63.580757
12876.855469	-63.343327
12919.921875	-63.210648
12962.988281	-63.889008
13006.054688	-64.132362
13049.121094	-64.131889
13092.187500	-64.521400
13135.253906	-64.350716
13178.320312	-64.448746
13221.386719	-65.145149
13264.453125	-64.913879
13307.519531	-64.694252
13350.585938	-64.775970
13393.652344	-64.507767
13436.718750	-65.123032
13479.785156	-65.873276
13522.851562	-66.262512
13565.917969	-66.641693
13608.984375	-66.449753
13652.050781	-66.227020
13695.117188	-66.045959
13738.183594	-66.401344
13781.250000	-66.437889
13824.316406	-66.276390
13867.382812	-66.543198
13910.449219	-66.623352
13953.515625	-66.669090
13996.582031	-67.149200
14039.648438	-67.706345
14082.714844	-68.342361
14125.781250	-68.359802
14168.847656	-68.539284
14211.914062	-68.123001
14254.980469	-68.014786
14298.046875	-68.086456
14341.113281	-68.529076
14384.179688	-68.173767
14427.246094	-68.305229
14470.312500	-69.315651
14513.378906	-70.090233
14556.445312	-69.674965
14599.511719	-69.321648
14642.578125	-69.679527
14685.644531	-69.336624
14728.710938	-69.621460
14771.777344	-70.294518
14814.843750	-70.236877
14857.910156	-69.849625
14900.976562	-69.974724
14944.042969	-70.484375
14987.109375	-70.348228
15030.175781	-70.244530
15073.242188	-70.093040
15116.308594	-70.371323
15159.375000	-71.006279
15202.441406	-70.766273
15245.507812	-71.154839
15288.574219	-71.120644
15331.640625	-70.771217
15374.707031	-71.238609
15417.773438	-71.211655
15460.839844	-70.374001
15503.906250	-70.211617
15546.972656	-70.689575
15590.039062	-70.361885
15633.105469	-70.884369
15676.171875	-71.084557
15719.238281	-70.477280
15762.304688	-70.307854
15805.371094	-70.308380
15848.437500	-70.446869
15891.503906	-70.579628
15934.570312	-70.762573
15977.636719	-69.854340
16020.703125	-69.549637
16063.769531	-70.488754
16106.835938	-71.035393
16149.902344	-70.515076
16192.968750	-69.547173
16236.035156	-70.012184
16279.101562	-70.070549
16322.167969	-69.944550
16365.234375	-70.000450
16408.300781	-69.688866
16451.367188	-68.942619
16494.433594	-68.937401
16537.500000	-69.566994
16580.566406	-69.306282
16623.632812	-69.860077
16666.699219	-69.576599
16709.765625	-69.355080
16752.832031	-68.419235
16795.898438	-68.338440
16838.964844	-68.651619
16882.031250	-68.888901
16925.097656	-69.417686
16968.164062	-68.594513
17011.230469	-68.591652
17054.296875	-69.178772
17097.363281	-69.024025
17140.429688	-68.314468
17183.496094	-68.847008
17226.562500	-68.778770
17269.628906	-68.311584
17312.695312	-68.299812
17355.761719	-68.275436
17398.828125	-67.950371
17441.894531	-67.772514
17484.960938	-67.568504
17528.027344	-67.834091
17571.093750	-68.147644
17614.160156	-67.796173
17657.226562	-67.543327
17700.292969	-67.716537
17743.359375	-67.359962
17786.425781	-67.729919
17829.492188	-67.747902
17872.558594	-67.159065
17915.625000	-67.360458
17958.691406	-67.486969
18001.757812	-67.446587
18044.824219	-67.075340
18087.890625	-67.147018
18130.957031	-66.887962
18174.023438	-66.906822
18217.089844	-66.720383
18260.156250	-66.413002
18303.222656	-66.361397
18346.289062	-66.183212
18389.355469	-66.581383
18432.421875	-66.988556
18475.488281	-66.711227
18518.554688	-66.744408
18561.621094	-66.629822
18604.687500	-66.638687
18647.753906	-66.663231
18690.820312	-66.209274
18733.886719	-65.647346
18776.953125	-65.781166
18820.019531	-66.017532
18863.085938	-65.638901
18906.152344	-65.631142
18949.218750	-66.039589
18992.285156	-65.925766
19035.351562	-65.521103
19078.417969	-65.688049
19121.484375	-65.633621
19164.550781	-64.903915
19207.617188	-64.797401
19250.683594	-64.895561
19293.750000	-65.213783
19336.816406	-65.791397
19379.882812	-65.858391
19422.949219	-65.506264
19466.015625	-65.833939
19509.082031	-65.282845
19552.148438	-64.822144
19595.214844	-65.601395
19638.281250	-65.026726
19681.347656	-64.865463
19724.414062	-64.601921
19767.480469	-64.448486
19810.546875	-64.487595
19853.613281	-65.119179
19896.679688	-65.158272
19939.746094	-65.081184
19982.812500	-64.568558
20025.878906	-64.935310
20068.945312	-64.523399
20112.011719	-63.977959
20155.078125	-63.946590
20198.144531	-64.744659
20241.210938	-64.497963
20284.277344	-64.243378
20327.343750	-64.533043
20370.410156	-64.362381
20413.476562	-64.268356
20456.542969	-64.430824
20499.609375	-65.068558
20542.675781	-64.733437
20585.742188	-64.611115
20628.808594	-64.377655
20671.875000	-64.578369
20714.941406	-64.632500
20758.007812	-64.155235
20801.074219	-64.143448
20844.140625	-63.921513
20887.207031	-64.312569
20930.273438	-63.559826
20973.339844	-63.591801
21016.406250	-64.716919
21059.472656	-64.809425
21102.539062	-64.171051
21145.605469	-63.965466
21188.671875	-63.701725
21231.738281	-64.014290
21274.804688	-64.035324
21317.871094	-63.993301
21360.937500	-63.929192
21404.003906	-64.176392
21447.070312	-63.652561
21490.136719	-63.422798
21533.203125	-63.851360
21576.269531	-64.330177
21619.335938	-64.108078
21662.402344	-63.963741
21705.468750	-63.836723
21748.535156	-64.187325
21791.601562	-64.420677
21834.667969	-64.888702
21877.734375	-64.600891
21920.800781	-64.879692
21963.867188	-65.207329
22006.933594	-65.596695
