Frequency (Hz)	Level (dB)
43.066406	-18.354004
86.132812	-15.039243
129.199219	-11.435323
172.265625	-11.004374
215.332031	-11.586871
258.398438	-11.975893
301.464844	-12.535997
344.531250	-12.847872
387.597656	-13.156487
430.664062	-13.852439
473.730469	-14.136554
516.796875	-14.286927
559.863281	-14.582412
602.929688	-14.749110
645.996094	-15.034978
689.062500	-15.797099
732.128906	-15.509991
775.195312	-16.078411
818.261719	-16.224955
861.328125	-15.928703
904.394531	-17.038931
947.460938	-17.252583
990.527344	-16.722029
1033.593750	-16.954144
1076.660156	-17.494097
1119.726562	-17.783413
1162.792969	-17.938711
1205.859375	-17.592247
1248.925781	-17.655931
1291.992188	-18.370127
1335.058594	-18.698336
1378.125000	-18.241575
1421.191406	-18.744511
1464.257812	-19.089031
1507.324219	-18.759005
1550.390625	-18.904787
1593.457031	-18.798853
1636.523438	-19.087992
1679.589844	-18.893044
1722.656250	-18.899605
1765.722656	-19.728003
1808.789062	-19.875677
1851.855469	-19.599911
1894.921875	-19.875923
1937.988281	-20.118467
1981.054688	-20.096369
2024.121094	-20.347506
2067.187500	-20.043253
2110.253906	-20.651777
2153.320312	-20.428202
2196.386719	-20.203262
2239.453125	-20.599430
2282.519531	-20.728638
2325.585938	-20.791428
2368.652344	-20.613102
2411.718750	-21.016863
2454.785156	-21.204597
2497.851562	-21.152912
2540.917969	-21.251396
2583.984375	-21.352499
2627.050781	-21.348875
2670.117188	-21.245831
2713.183594	-21.701038
2756.250000	-21.918255
2799.316406	-21.475901
2842.382812	-21.678272
2885.449219	-21.476694
2928.515625	-21.717800
2971.582031	-21.747334
3014.648438	-22.186789
3057.714844	-22.310173
3100.781250	-22.070646
3143.847656	-22.206053
3186.914062	-22.086123
3229.980469	-21.953976
3273.046875	-22.531155
3316.113281	-22.157179
3359.179688	-22.146820
3402.246094	-22.233620
3445.312500	-21.917601
3488.378906	-22.630901
3531.445312	-23.000425
3574.511719	-23.228973
3617.578125	-23.268675
3660.644531	-23.035498
3703.710938	-23.184591
3746.777344	-22.747808
3789.843750	-23.248163
3832.910156	-23.383507
3875.976562	-23.052345
3919.042969	-23.407465
3962.109375	-23.218424
4005.175781	-23.350233
4048.242188	-23.508471
4091.308594	-23.375322
4134.375000	-23.503742
4177.441406	-23.253214
4220.507812	-23.471724
4263.574219	-23.366718
4306.640625	-23.861637
4349.707031	-23.847588
4392.773438	-24.093214
4435.839844	-24.392559
4478.906250	-24.125509
4521.972656	-23.758440
4565.039062	-23.779789
4608.105469	-23.389456
4651.171875	-23.687956
4694.238281	-24.134197
4737.304688	-24.047607
4780.371094	-24.111111
4823.437500	-24.077320
4866.503906	-24.453945
4909.570312	-24.697285
4952.636719	-24.487291
4995.703125	-24.887589
5038.769531	-24.790424
5081.835938	-24.437143
5124.902344	-24.683863
5167.968750	-24.967422
5211.035156	-24.911055
5254.101562	-24.617401
5297.167969	-24.897461
5340.234375	-24.681070
5383.300781	-24.641796
5426.367188	-24.746397
5469.433594	-24.909868
5512.500000	-24.780054
5555.566406	-24.867262
5598.632812	-25.084322
5641.699219	-24.524860
5684.765625	-25.046494
5727.832031	-25.406435
5770.898438	-24.772961
5813.964844	-25.453321
5857.031250	-25.655806
5900.097656	-25.633921
5943.164062	-25.534925
5986.230469	-25.513201
6029.296875	-25.437323
6072.363281	-25.529688
6115.429688	-25.424774
6158.496094	-25.067190
6201.562500	-25.466784
6244.628906	-25.738264
6287.695312	-25.474493
6330.761719	-25.448618
6373.828125	-25.765060
6416.894531	-25.408401
6459.960938	-25.651829
6503.027344	-25.666290
6546.093750	-25.678783
6589.160156	-25.521992
6632.226562	-26.005085
6675.292969	-26.302015
6718.359375	-26.139042
6761.425781	-25.838009
6804.492188	-25.813675
6847.558594	-25.370428
6890.625000	-25.574863
6933.691406	-26.186167
6976.757812	-26.294628
7019.824219	-26.338018
7062.890625	-26.723063
7105.957031	-26.500980
7149.023438	-26.528049
7192.089844	-26.421463
7235.156250	-26.395514
7278.222656	-26.498346
7321.289062	-26.653811
7364.355469	-26.945532
7407.421875	-26.515253
7450.488281	-26.375948
7493.554688	-26.932362
7536.621094	-27.193535
7579.687500	-26.440073
7622.753906	-26.998039
7665.820312	-27.041939
7708.886719	-26.732689
7751.953125	-26.941168
7795.019531	-27.399611
7838.085938	-27.219391
7881.152344	-26.799677
7924.218750	-26.889183
7967.285156	-27.237978
8010.351562	-27.148478
8053.417969	-26.747643
8096.484375	-26.781925
8139.550781	-26.935627
8182.617188	-26.816730
8225.683594	-26.915525
8268.750000	-27.128550
8311.816406	-27.473795
8354.882812	-27.531326
8397.949219	-27.448656
8441.015625	-27.441446
8484.082031	-27.361214
8527.148438	-27.565609
8570.214844	-27.581081
8613.281250	-27.591532
8656.347656	-27.652349
8699.414062	-27.714182
8742.480469	-27.617664
8785.546875	-27.385691
8828.613281	-27.826435
8871.679688	-27.592270
8914.746094	-27.506620
8957.812500	-28.078579
9000.878906	-28.011772
9043.945312	-28.202164
9087.011719	-27.641401
9130.078125	-27.642765
9173.144531	-27.649635
9216.210938	-27.613512
9259.277344	-27.520271
9302.343750	-27.843836
9345.410156	-27.985825
9388.476562	-28.267700
9431.542969	-28.671524
9474.609375	-28.981209
9517.675781	-28.706364
9560.742188	-28.660873
9603.808594	-28.152245
9646.875000	-28.305664
9689.941406	-28.431734
9733.007812	-28.326588
9776.074219	-28.505419
9819.140625	-28.870880
9862.207031	-29.140179
9905.273438	-29.076828
9948.339844	-28.646263
9991.406250	-29.019058
10034.472656	-28.731869
10077.539062	-28.356104
10120.605469	-28.619440
10163.671875	-28.873960
10206.738281	-28.927546
10249.804688	-29.036589
10292.871094	-28.429842
10335.937500	-28.786880
10379.003906	-28.924147
10422.070312	-29.025486
10465.136719	-29.165358
10508.203125	-28.727018
10551.269531	-28.736376
10594.335938	-28.809563
10637.402344	-28.380230
10680.468750	-28.846832
10723.535156	-28.652189
10766.601562	-28.590740
10809.667969	-29.000404
10852.734375	-28.755276
10895.800781	-29.076868
10938.867188	-29.279188
10981.933594	-28.879812
11025.000000	-29.200346
11068.066406	-29.016705
11111.132812	-29.073284
11154.199219	-29.152628
11197.265625	-29.217844
11240.332031	-30.107948
11283.398438	-29.941406
11326.464844	-29.183250
11369.531250	-29.341757
11412.597656	-29.438673
11455.664062	-29.198132
11498.730469	-29.292248
11541.796875	-29.544716
11584.863281	-30.273159
11627.929688	-29.890373
11670.996094	-29.522102
11714.062500	-29.586288
11757.128906	-29.477922
11800.195312	-29.562914
11843.261719	-29.688238
11886.328125	-29.725330
11929.394531	-30.100182
11972.460938	-30.616858
12015.527344	-30.343376
12058.593750	-30.671974
12101.660156	-30.053787
12144.726562	-30.063267
12187.792969	-30.254091
12230.859375	-30.653799
12273.925781	-30.775923
12316.992188	-30.242731
12360.058594	-30.417152
12403.125000	-29.995956
12446.191406	-30.050808
12489.257812	-30.156328
12532.324219	-30.072878
12575.390625	-30.326075
12618.457031	-30.593891
12661.523438	-30.252066
12704.589844	-30.536533
12747.656250	-30.493799
12790.722656	-30.704895
12833.789062	-30.629948
12876.855469	-30.417570
12919.921875	-30.632025
12962.988281	-30.690842
13006.054688	-31.017082
13049.121094	-31.042389
13092.187500	-30.775459
13135.253906	-30.603296
13178.320312	-30.879185
13221.386719	-30.808092
13264.453125	-30.850348
13307.519531	-30.734402
13350.585938	-30.492874
13393.652344	-30.652582
13436.718750	-30.697964
13479.785156	-31.602283
13522.851562	-31.594542
13565.917969	-31.473413
13608.984375	-31.423811
13652.050781	-30.825708
13695.117188	-30.875973
13738.183594	-31.013355
13781.250000	-30.754229
13824.316406	-30.589521
13867.382812	-30.915226
13910.449219	-30.914824
13953.515625	-30.781769
13996.582031	-31.301657
14039.648438	-31.463886
14082.714844	-31.797659
14125.781250	-31.374805
14168.847656	-31.330727
14211.914062	-31.674822
14254.980469	-31.853664
14298.046875	-31.252102
14341.113281	-31.448746
14384.179688	-31.135412
14427.246094	-30.902090
14470.312500	-31.164137
14513.378906	-31.420034
14556.445312	-31.560242
14599.511719	-32.099468
14642.578125	-31.714581
14685.644531	-31.691963
14728.710938	-31.796179
14771.777344	-31.995459
14814.843750	-31.847023
14857.910156	-31.862745
14900.976562	-31.846533
14944.042969	-32.029999
14987.109375	-31.284145
15030.175781	-31.617153
15073.242188	-32.310677
15116.308594	-32.374821
15159.375000	-32.349300
15202.441406	-32.337349
15245.507812	-32.676941
15288.574219	-32.365620
15331.640625	-32.314598
15374.707031	-32.357651
15417.773438	-32.329754
15460.839844	-32.068336
15503.906250	-32.439133
15546.972656	-32.588825
15590.039062	-32.713608
15633.105469	-32.815666
15676.171875	-32.429955
15719.238281	-32.158962
15762.304688	-32.594795
15805.371094	-32.273899
15848.437500	-32.144939
15891.503906	-32.379505
15934.570312	-32.728634
15977.636719	-32.153290
16020.703125	-31.977825
16063.769531	-32.709415
16106.835938	-33.587208
16149.902344	-33.261185
16192.968750	-32.335373
16236.035156	-32.340767
16279.101562	-32.492931
16322.167969	-32.842812
16365.234375	-33.151230
16408.300781	-33.201305
16451.367188	-33.004871
16494.433594	-32.775013
16537.500000	-33.255470
16580.566406	-33.611969
16623.632812	-33.601162
16666.699219	-33.096706
16709.765625	-32.515003
16752.832031	-32.332226
16795.898438	-32.708954
16838.964844	-33.232609
16882.031250	-33.361851
16925.097656	-33.465908
16968.164062	-33.084930
17011.230469	-33.087975
17054.296875	-33.484734
17097.363281	-33.371010
17140.429688	-33.349903
17183.496094	-33.524147
17226.562500	-33.698334
17269.628906	-33.698299
17312.695312	-33.647102
17355.761719	-33.704636
17398.828125	-33.553398
17441.894531	-33.577785
17484.960938	-33.308369
17528.027344	-33.444130
17571.093750	-34.120502
17614.160156	-34.183437
17657.226562	-33.848358
17700.292969	-34.082359
17743.359375	-34.055115
17786.425781	-34.177059
17829.492188	-34.258820
17872.558594	-33.480167
17915.625000	-33.934963
17958.691406	-34.241493
18001.757812	-34.570663
18044.824219	-34.460720
18087.890625	-34.022327
18130.957031	-34.256332
18174.023438	-34.585377
18217.089844	-34.293640
18260.156250	-34.354008
18303.222656	-34.514339
18346.289062	-34.480812
18389.355469	-35.271126
18432.421875	-35.341496
18475.488281	-34.503899
18518.554688	-34.519814
18561.621094	-34.578548
18604.687500	-35.039864
18647.753906	-34.937153
18690.820312	-34.854088
18733.886719	-34.686947
18776.953125	-34.315521
18820.019531	-34.764381
18863.085938	-34.669106
18906.152344	-34.744049
18949.218750	-34.953171
18992.285156	-34.997677
19035.351562	-35.062653
19078.417969	-35.133945
19121.484375	-35.279068
19164.550781	-35.175846
19207.617188	-35.108833
19250.683594	-35.442265
19293.750000	-35.388554
19336.816406	-35.377937
19379.882812	-36.020344
19422.949219	-35.661343
19466.015625	-35.831581
19509.082031	-35.061485
19552.148438	-35.249023
19595.214844	-35.624886
19638.281250	-35.712002
19681.347656	-35.508762
19724.414062	-35.465282
19767.480469	-35.762493
19810.546875	-35.474655
19853.613281	-36.221325
19896.679688	-36.321068
19939.746094	-36.252178
19982.812500	-36.144455
20025.878906	-36.280521
20068.945312	-36.394531
20112.011719	-36.197292
20155.078125	-35.895729
20198.144531	-36.140018
20241.210938	-36.453411
20284.277344	-36.593723
20327.343750	-36.475986
20370.410156	-36.531429
20413.476562	-36.315449
20456.542969	-36.615562
20499.609375	-37.002617
20542.675781	-36.833584
20585.742188	-37.003704
20628.808594	-37.450397
20671.875000	-37.336212
20714.941406	-37.506233
20758.007812	-37.314056
20801.074219	-37.338253
20844.140625	-37.278923
20887.207031	-37.462605
20930.273438	-37.268486
20973.339844	-37.153625
21016.406250	-37.409523
21059.472656	-37.613693
21102.539062	-38.023373
21145.605469	-38.083920
21188.671875	-37.678391
21231.738281	-38.021011
21274.804688	-38.034473
21317.871094	-38.003605
21360.937500	-37.883400
21404.003906	-37.879646
21447.070312	-38.103737
21490.136719	-38.107563
21533.203125	-38.485447
21576.269531	-38.665173
21619.335938	-38.704075
21662.402344	-38.512939
21705.468750	-38.187313
21748.535156	-37.653088
21791.601562	-38.178574
21834.667969	-38.002869
21877.734375	-37.687630
21920.800781	-37.822056
21963.867188	-37.537342
22006.933594	-37.502708
