Frequency (Hz)	Level (dB)
43.066406	-19.916348
86.132812	-16.965094
129.199219	-13.617841
172.265625	-13.128405
215.332031	-13.722519
258.398438	-13.916429
301.464844	-13.985034
344.531250	-13.811553
387.597656	-13.831099
430.664062	-14.127498
473.730469	-14.421765
516.796875	-15.034186
559.863281	-15.135480
602.929688	-14.913757
645.996094	-15.175022
689.062500	-15.652827
732.128906	-15.314040
775.195312	-15.693814
818.261719	-16.159838
861.328125	-16.272066
904.394531	-16.811401
947.460938	-17.099062
990.527344	-17.212933
1033.593750	-17.329287
1076.660156	-17.325459
1119.726562	-17.666758
1162.792969	-17.683704
1205.859375	-17.720390
1248.925781	-18.056414
1291.992188	-18.589657
1335.058594	-18.648409
1378.125000	-18.316900
1421.191406	-18.545748
1464.257812	-19.109060
1507.324219	-18.884964
1550.390625	-18.873446
1593.457031	-19.170496
1636.523438	-19.134441
1679.589844	-19.247667
1722.656250	-19.517551
1765.722656	-19.556391
1808.789062	-19.496824
1851.855469	-19.675224
1894.921875	-19.899841
1937.988281	-19.844034
1981.054688	-19.945780
2024.121094	-20.413710
2067.187500	-20.452829
2110.253906	-20.353205
2153.320312	-20.253122
2196.386719	-20.420038
2239.453125	-20.282694
2282.519531	-20.511097
2325.585938	-20.534994
2368.652344	-20.668493
2411.718750	-20.969976
2454.785156	-21.520735
2497.851562	-21.109446
2540.917969	-20.875071
2583.984375	-21.116940
2627.050781	-21.335722
2670.117188	-21.209457
2713.183594	-21.224218
2756.250000	-21.584126
2799.316406	-21.370323
2842.382812	-21.328941
2885.449219	-21.801121
2928.515625	-21.918194
2971.582031	-22.066238
3014.648438	-22.282923
3057.714844	-21.953947
3100.781250	-21.939806
3143.847656	-22.003796
3186.914062	-21.784285
3229.980469	-21.939838
3273.046875	-22.484098
3316.113281	-22.691542
3359.179688	-22.367577
3402.246094	-22.404676
3445.312500	-22.742262
3488.378906	-22.702105
3531.445312	-22.530426
3574.511719	-22.798372
3617.578125	-23.047506
3660.644531	-22.532427
3703.710938	-22.745310
3746.777344	-23.263165
3789.843750	-23.095364
3832.910156	-23.292423
3875.976562	-23.015781
3919.042969	-23.306124
3962.109375	-23.319473
4005.175781	-23.636118
4048.242188	-23.555685
4091.308594	-23.740440
4134.375000	-23.465916
4177.441406	-23.222734
4220.507812	-23.335342
4263.574219	-23.461514
4306.640625	-23.657135
4349.707031	-23.450275
4392.773438	-23.551117
4435.839844	-24.018049
4478.906250	-23.876268
4521.972656	-24.276133
4565.039062	-24.348219
4608.105469	-24.173424
4651.171875	-24.227943
4694.238281	-23.968788
4737.304688	-23.481644
4780.371094	-23.341213
4823.437500	-23.759727
4866.503906	-24.392326
4909.570312	-24.446888
4952.636719	-24.082602
4995.703125	-24.268652
5038.769531	-24.579378
5081.835938	-24.371059
5124.902344	-24.413525
5167.968750	-24.532431
5211.035156	-24.680775
5254.101562	-25.002716
5297.167969	-24.748030
5340.234375	-24.575800
5383.300781	-24.635347
5426.367188	-25.043369
5469.433594	-24.961580
5512.500000	-24.847683
5555.566406	-24.889263
5598.632812	-24.718605
5641.699219	-24.770464
5684.765625	-24.543386
5727.832031	-24.743664
5770.898438	-25.007189
5813.964844	-25.195950
5857.031250	-24.950951
5900.097656	-25.241190
5943.164062	-24.913788
5986.230469	-24.874971
6029.296875	-25.123098
6072.363281	-25.342318
6115.429688	-25.299316
6158.496094	-25.074778
6201.562500	-25.355160
6244.628906	-25.363268
6287.695312	-25.277185
6330.761719	-25.625084
6373.828125	-25.490578
6416.894531	-25.303892
6459.960938	-25.406225
6503.027344	-25.717337
6546.093750	-25.966351
6589.160156	-26.053257
6632.226562	-26.250372
6675.292969	-25.831757
6718.359375	-25.777102
6761.425781	-25.557486
6804.492188	-26.092810
6847.558594	-25.901495
6890.625000	-26.235090
6933.691406	-26.270359
6976.757812	-26.043531
7019.824219	-25.864227
7062.890625	-26.169127
7105.957031	-26.120331
7149.023438	-26.208614
7192.089844	-26.583876
7235.156250	-26.251219
7278.222656	-25.936941
7321.289062	-26.252190
7364.355469	-26.249971
7407.421875	-26.278517
7450.488281	-26.362825
7493.554688	-26.380501
7536.621094	-26.457258
7579.687500	-26.371143
7622.753906	-26.535799
7665.820312	-26.774170
7708.886719	-26.889391
7751.953125	-26.792082
7795.019531	-26.790348
7838.085938	-26.780214
7881.152344	-26.681637
7924.218750	-26.722052
7967.285156	-27.034399
8010.351562	-26.885586
8053.417969	-26.828913
8096.484375	-26.640987
8139.550781	-26.499245
8182.617188	-26.745293
8225.683594	-27.023323
8268.750000	-27.243855
8311.816406	-26.908266
8354.882812	-26.875248
8397.949219	-27.110233
8441.015625	-27.240433
8484.082031	-26.925966
8527.148438	-27.162777
8570.214844	-27.379253
8613.281250	-27.524374
8656.347656	-27.547152
8699.414062	-27.162033
8742.480469	-27.510664
8785.546875	-27.433992
8828.613281	-27.574705
8871.679688	-27.823336
8914.746094	-27.593937
8957.812500	-27.692787
9000.878906	-27.795290
9043.945312	-27.559477
9087.011719	-27.661734
9130.078125	-27.684618
9173.144531	-27.703489
9216.210938	-28.060198
9259.277344	-28.028912
9302.343750	-27.853426
9345.410156	-27.624466
9388.476562	-27.588097
9431.542969	-27.674353
9474.609375	-27.928528
9517.675781	-27.882614
9560.742188	-27.751392
9603.808594	-27.701973
9646.875000	-28.085171
9689.941406	-28.349920
9733.007812	-28.306396
9776.074219	-27.922462
9819.140625	-28.308592
9862.207031	-28.474482
9905.273438	-28.326088
9948.339844	-28.012836
9991.406250	-28.231016
10034.472656	-28.343334
10077.539062	-28.058155
10120.605469	-28.333767
10163.671875	-28.356932
10206.738281	-28.243156
10249.804688	-28.577618
10292.871094	-28.404413
10335.937500	-28.211863
10379.003906	-28.397884
10422.070312	-28.507418
10465.136719	-28.177958
10508.203125	-28.068375
10551.269531	-28.485126
10594.335938	-28.636433
10637.402344	-28.693905
10680.468750	-28.594732
10723.535156	-28.877224
10766.601562	-29.278507
10809.667969	-29.260080
10852.734375	-28.888432
10895.800781	-28.822929
10938.867188	-28.716644
10981.933594	-28.784384
11025.000000	-29.013720
11068.066406	-29.165644
11111.132812	-29.015327
11154.199219	-29.154781
11197.265625	-29.078012
11240.332031	-29.046383
11283.398438	-28.781467
11326.464844	-28.769533
11369.531250	-28.976757
11412.597656	-28.983673
11455.664062	-29.030045
11498.730469	-29.021070
11541.796875	-28.762196
11584.863281	-29.012339
11627.929688	-29.127470
11670.996094	-29.665134
11714.062500	-29.340433
11757.128906	-29.308887
11800.195312	-29.200104
11843.261719	-29.209785
11886.328125	-29.288139
11929.394531	-29.255568
11972.460938	-29.488857
12015.527344	-29.486052
12058.593750	-29.401226
12101.660156	-29.367180
12144.726562	-29.247986
12187.792969	-29.281528
12230.859375	-29.520596
12273.925781	-29.439548
12316.992188	-29.681004
12360.058594	-29.970261
12403.125000	-29.791187
12446.191406	-29.853683
12489.257812	-29.615229
12532.324219	-30.144230
12575.390625	-30.075775
12618.457031	-30.052061
12661.523438	-30.034756
12704.589844	-30.025118
12747.656250	-30.057680
12790.722656	-29.811293
12833.789062	-29.990759
12876.855469	-30.005211
12919.921875	-29.742939
12962.988281	-29.622076
13006.054688	-29.745459
13049.121094	-30.079065
13092.187500	-30.063967
13135.253906	-29.940443
13178.320312	-30.639463
13221.386719	-30.509336
13264.453125	-30.376089
13307.519531	-30.595823
13350.585938	-30.290487
13393.652344	-29.995577
13436.718750	-30.368193
13479.785156	-30.345840
13522.851562	-30.525797
13565.917969	-30.211262
13608.984375	-30.225040
13652.050781	-30.678123
13695.117188	-30.698570
13738.183594	-30.315004
13781.250000	-30.682976
13824.316406	-30.751205
13867.382812	-30.379356
13910.449219	-30.793972
13953.515625	-30.919388
13996.582031	-30.627871
14039.648438	-30.528044
14082.714844	-30.732483
14125.781250	-30.615938
14168.847656	-30.734932
14211.914062	-30.738726
14254.980469	-30.818447
14298.046875	-30.817265
14341.113281	-30.944050
14384.179688	-30.878706
14427.246094	-31.120655
14470.312500	-31.153677
14513.378906	-30.807322
14556.445312	-31.109631
14599.511719	-31.240446
14642.578125	-30.881039
14685.644531	-30.962315
14728.710938	-31.231018
14771.777344	-31.559151
14814.843750	-31.433002
14857.910156	-31.161602
14900.976562	-31.220354
14944.042969	-31.389174
14987.109375	-31.323349
15030.175781	-31.044373
15073.242188	-31.280466
15116.308594	-31.449167
15159.375000	-30.958004
15202.441406	-31.000856
15245.507812	-31.604013
15288.574219	-31.368290
15331.640625	-31.308279
15374.707031	-31.533937
15417.773438	-31.408239
15460.839844	-31.047388
15503.906250	-31.327230
15546.972656	-31.135801
15590.039062	-31.570360
15633.105469	-31.705856
15676.171875	-31.770784
15719.238281	-32.071144
15762.304688	-31.968060
15805.371094	-31.873501
15848.437500	-31.797449
15891.503906	-31.784479
15934.570312	-31.886475
15977.636719	-31.585674
16020.703125	-32.005230
16063.769531	-32.346714
16106.835938	-32.002514
16149.902344	-31.570412
16192.968750	-31.625038
16236.035156	-31.772448
16279.101562	-31.973419
16322.167969	-31.677507
16365.234375	-31.675770
16408.300781	-32.244335
16451.367188	-32.326408
16494.433594	-32.193439
16537.500000	-32.150326
16580.566406	-32.159924
16623.632812	-32.272449
16666.699219	-32.236462
16709.765625	-32.555820
16752.832031	-32.394783
16795.898438	-32.629627
16838.964844	-32.678600
16882.031250	-32.376793
16925.097656	-32.465385
16968.164062	-32.197266
17011.230469	-32.351414
17054.296875	-32.580975
17097.363281	-32.876236
17140.429688	-32.320805
17183.496094	-32.375389
17226.562500	-32.258640
17269.628906	-32.806339
17312.695312	-32.929848
17355.761719	-32.632313
17398.828125	-32.683693
17441.894531	-32.977291
17484.960938	-32.696697
17528.027344	-32.906750
17571.093750	-32.585617
17614.160156	-32.847862
17657.226562	-32.874825
17700.292969	-32.877827
17743.359375	-33.164204
17786.425781	-33.248241
17829.492188	-32.947819
17872.558594	-33.107861
17915.625000	-33.419811
17958.691406	-32.947548
18001.757812	-33.091633
18044.824219	-33.476002
18087.890625	-33.400211
18130.957031	-33.234234
18174.023438	-33.367992
18217.089844	-33.270988
18260.156250	-33.463142
18303.222656	-33.827656
18346.289062	-33.863319
18389.355469	-33.953487
18432.421875	-33.260674
18475.488281	-33.587738
18518.554688	-33.768723
18561.621094	-33.307865
18604.687500	-33.713596
18647.753906	-33.658871
18690.820312	-33.994858
18733.886719	-34.038166
18776.953125	-34.279568
18820.019531	-34.586891
18863.085938	-34.084717
18906.152344	-33.878254
18949.218750	-34.004517
18992.285156	-33.966187
19035.351562	-33.980236
19078.417969	-34.136974
19121.484375	-34.133774
19164.550781	-34.212086
19207.617188	-34.497063
19250.683594	-34.636326
19293.750000	-34.608662
19336.816406	-34.791359
19379.882812	-34.719658
19422.949219	-34.614513
19466.015625	-34.511257
19509.082031	-34.270756
19552.148438	-34.030804
19595.214844	-34.422741
19638.281250	-34.473801
19681.347656	-34.571854
19724.414062	-34.468529
19767.480469	-34.893646
19810.546875	-34.824585
19853.613281	-34.800838
19896.679688	-35.047810
19939.746094	-34.727982
19982.812500	-34.729549
20025.878906	-34.523487
20068.945312	-34.894943
20112.011719	-35.587685
20155.078125	-35.346176
20198.144531	-35.301136
20241.210938	-35.251301
20284.277344	-35.248577
20327.343750	-35.570538
20370.410156	-35.712521
20413.476562	-35.402603
20456.542969	-36.034737
20499.609375	-35.804386
20542.675781	-35.788593
20585.742188	-35.963997
20628.808594	-36.132637
20671.875000	-35.644768
20714.941406	-35.777924
20758.007812	-35.881844
20801.074219	-35.872066
20844.140625	-35.938404
20887.207031	-36.551311
20930.273438	-36.382229
20973.339844	-36.067554
21016.406250	-35.767483
21059.472656	-35.617908
21102.539062	-36.142406
21145.605469	-36.567524
21188.671875	-36.306675
21231.738281	-36.159077
21274.804688	-36.388901
21317.871094	-36.503967
21360.937500	-36.824570
21404.003906	-36.840897
21447.070312	-36.925865
21490.136719	-36.669865
21533.203125	-36.804722
21576.269531	-37.081997
21619.335938	-36.894081
21662.402344	-36.933804
21705.468750	-36.978878
21748.535156	-36.817936
21791.601562	-36.911530
21834.667969	-36.521267
21877.734375	-36.657810
21920.800781	-36.577538
21963.867188	-36.986805
22006.933594	-36.812088
