Frequency (Hz)	Level (dB)
43.066406	-29.718262
86.132812	-23.589804
129.199219	-19.303713
172.265625	-18.433836
215.332031	-18.775265
258.398438	-18.751965
301.464844	-18.731121
344.531250	-18.591665
387.597656	-18.654560
430.664062	-18.891886
473.730469	-18.985630
516.796875	-19.195108
559.863281	-19.236109
602.929688	-19.219713
645.996094	-19.558586
689.062500	-19.830666
732.128906	-19.269913
775.195312	-19.637365
818.261719	-19.611023
861.328125	-19.579584
904.394531	-20.209597
947.460938	-20.698153
990.527344	-20.740345
1033.593750	-20.864796
1076.660156	-20.949324
1119.726562	-20.935528
1162.792969	-21.396975
1205.859375	-21.271231
1248.925781	-21.334087
1291.992188	-21.692671
1335.058594	-22.059046
1378.125000	-21.838772
1421.191406	-22.102919
1464.257812	-22.387884
1507.324219	-22.028507
1550.390625	-22.361759
1593.457031	-22.629034
1636.523438	-22.509644
1679.589844	-22.537428
1722.656250	-22.607759
1765.722656	-22.522995
1808.789062	-22.736429
1851.855469	-22.666332
1894.921875	-23.197107
1937.988281	-23.695570
1981.054688	-23.949770
2024.121094	-23.687784
2067.187500	-23.678711
2110.253906	-23.819408
2153.320312	-23.574747
2196.386719	-23.460194
2239.453125	-23.834839
2282.519531	-23.828947
2325.585938	-23.821411
2368.652344	-23.992283
2411.718750	-24.232964
2454.785156	-24.775074
2497.851562	-24.818089
2540.917969	-24.850651
2583.984375	-24.442202
2627.050781	-24.157246
2670.117188	-24.515837
2713.183594	-24.727409
2756.250000	-25.156437
2799.316406	-24.441040
2842.382812	-24.568464
2885.449219	-25.062635
2928.515625	-25.137299
2971.582031	-25.113342
3014.648438	-25.376060
3057.714844	-25.177841
3100.781250	-25.221996
3143.847656	-25.475216
3186.914062	-25.187456
3229.980469	-24.956831
3273.046875	-25.781282
3316.113281	-26.318920
3359.179688	-25.692131
3402.246094	-25.526144
3445.312500	-25.873028
3488.378906	-25.772789
3531.445312	-25.643885
3574.511719	-25.847824
3617.578125	-26.187378
3660.644531	-26.285440
3703.710938	-26.325087
3746.777344	-26.894186
3789.843750	-26.782524
3832.910156	-26.304646
3875.976562	-26.309809
3919.042969	-27.220350
3962.109375	-27.034273
4005.175781	-26.887571
4048.242188	-26.827702
4091.308594	-27.161434
4134.375000	-27.304356
4177.441406	-26.652096
4220.507812	-26.324123
4263.574219	-26.564274
4306.640625	-26.568823
4349.707031	-26.927797
4392.773438	-27.126310
4435.839844	-27.224682
4478.906250	-27.086136
4521.972656	-27.637005
4565.039062	-27.605322
4608.105469	-27.218380
4651.171875	-27.671452
4694.238281	-27.285692
4737.304688	-26.664673
4780.371094	-26.818150
4823.437500	-27.767586
4866.503906	-28.048697
4909.570312	-27.991268
4952.636719	-27.373751
4995.703125	-27.764177
5038.769531	-28.446693
5081.835938	-27.992302
5124.902344	-27.933643
5167.968750	-27.698494
5211.035156	-28.135210
5254.101562	-28.548716
5297.167969	-28.027964
5340.234375	-27.889017
5383.300781	-28.446014
5426.367188	-28.573336
5469.433594	-28.479244
5512.500000	-28.056995
5555.566406	-28.283474
5598.632812	-28.512516
5641.699219	-28.347740
5684.765625	-28.526075
5727.832031	-28.383980
5770.898438	-28.728661
5813.964844	-28.690674
5857.031250	-28.562063
5900.097656	-28.926872
5943.164062	-28.627689
5986.230469	-28.403543
6029.296875	-28.561441
6072.363281	-28.697384
6115.429688	-28.727900
6158.496094	-28.647947
6201.562500	-28.600367
6244.628906	-28.770960
6287.695312	-28.954494
6330.761719	-29.122622
6373.828125	-29.215187
6416.894531	-28.871117
6459.960938	-28.558764
6503.027344	-29.084131
6546.093750	-29.403397
6589.160156	-29.467148
6632.226562	-29.702223
6675.292969	-29.521784
6718.359375	-29.342867
6761.425781	-29.423315
6804.492188	-29.849741
6847.558594	-29.511570
6890.625000	-29.394472
6933.691406	-29.078201
6976.757812	-29.194723
7019.824219	-29.297832
7062.890625	-29.558657
7105.957031	-29.737442
7149.023438	-29.838184
7192.089844	-29.724283
7235.156250	-29.902266
7278.222656	-29.834904
7321.289062	-29.750172
7364.355469	-29.720955
7407.421875	-29.741423
7450.488281	-29.948858
7493.554688	-29.930227
7536.621094	-29.964846
7579.687500	-30.169580
7622.753906	-30.247969
7665.820312	-30.083120
7708.886719	-30.298986
7751.953125	-30.660591
7795.019531	-30.553938
7838.085938	-29.943674
7881.152344	-29.915924
7924.218750	-29.755419
7967.285156	-30.311876
8010.351562	-30.639185
8053.417969	-30.185791
8096.484375	-30.566175
8139.550781	-30.493895
8182.617188	-30.291998
8225.683594	-30.123501
8268.750000	-30.264214
8311.816406	-30.215300
8354.882812	-30.574381
8397.949219	-30.695396
8441.015625	-30.701550
8484.082031	-30.306107
8527.148438	-30.324963
8570.214844	-30.561337
8613.281250	-30.735786
8656.347656	-30.632124
8699.414062	-30.633862
8742.480469	-30.972080
8785.546875	-30.726440
8828.613281	-30.889866
8871.679688	-31.038797
8914.746094	-30.892412
8957.812500	-30.892570
9000.878906	-31.148272
9043.945312	-30.630236
9087.011719	-30.813377
9130.078125	-31.148008
9173.144531	-31.343485
9216.210938	-30.953352
9259.277344	-30.904886
9302.343750	-31.264063
9345.410156	-31.145687
9388.476562	-31.005201
9431.542969	-30.866795
9474.609375	-31.102610
9517.675781	-31.336779
9560.742188	-31.334269
9603.808594	-31.464865
9646.875000	-31.887009
9689.941406	-31.588680
9733.007812	-30.963621
9776.074219	-31.023434
9819.140625	-31.595255
9862.207031	-31.736805
9905.273438	-31.252970
9948.339844	-31.138903
9991.406250	-31.120720
10034.472656	-31.349983
10077.539062	-31.395948
10120.605469	-31.782984
10163.671875	-31.609272
10206.738281	-32.058502
10249.804688	-32.092686
10292.871094	-31.620207
10335.937500	-30.998756
10379.003906	-31.265732
10422.070312	-31.366198
10465.136719	-31.630617
10508.203125	-31.936729
10551.269531	-32.065655
10594.335938	-31.630993
10637.402344	-31.820953
10680.468750	-31.889252
10723.535156	-31.999054
10766.601562	-31.870047
10809.667969	-32.228233
10852.734375	-31.887630
10895.800781	-32.217304
10938.867188	-32.085377
10981.933594	-31.890032
11025.000000	-32.370625
11068.066406	-31.898933
11111.132812	-31.942251
11154.199219	-32.140800
11197.265625	-32.343914
11240.332031	-32.014076
11283.398438	-32.138783
11326.464844	-32.341534
11369.531250	-32.336937
11412.597656	-32.488792
11455.664062	-32.821716
11498.730469	-32.368195
11541.796875	-31.874865
11584.863281	-32.144314
11627.929688	-32.389252
11670.996094	-32.954655
11714.062500	-32.360237
11757.128906	-32.354404
11800.195312	-32.403271
11843.261719	-32.269562
11886.328125	-32.355907
11929.394531	-31.902367
11972.460938	-32.400448
12015.527344	-32.207600
12058.593750	-32.250233
12101.660156	-32.590008
12144.726562	-32.082943
12187.792969	-32.197922
12230.859375	-32.835529
12273.925781	-32.509048
12316.992188	-32.499386
12360.058594	-32.734074
12403.125000	-32.820374
12446.191406	-32.811638
12489.257812	-32.947552
12532.324219	-33.058720
12575.390625	-32.930538
12618.457031	-32.938721
12661.523438	-33.459496
12704.589844	-33.382183
12747.656250	-33.041908
12790.722656	-33.092667
12833.789062	-33.274540
12876.855469	-33.253254
12919.921875	-33.201988
12962.988281	-33.019169
13006.054688	-32.565651
13049.121094	-32.963898
13092.187500	-33.071468
13135.253906	-33.118839
13178.320312	-33.233322
13221.386719	-32.915112
13264.453125	-32.720093
13307.519531	-33.091484
13350.585938	-33.087212
13393.652344	-33.555561
13436.718750	-33.409866
13479.785156	-33.399952
13522.851562	-33.651112
13565.917969	-33.611469
13608.984375	-33.161636
13652.050781	-33.273926
13695.117188	-33.653381
13738.183594	-34.134392
13781.250000	-33.595585
13824.316406	-33.682972
13867.382812	-33.457092
13910.449219	-33.875652
13953.515625	-33.681416
13996.582031	-33.327332
14039.648438	-33.498936
14082.714844	-33.961830
14125.781250	-33.557701
14168.847656	-33.403709
14211.914062	-33.847015
14254.980469	-33.698002
14298.046875	-33.595428
14341.113281	-33.607105
14384.179688	-33.952641
14427.246094	-34.490627
14470.312500	-34.083076
14513.378906	-33.841236
14556.445312	-34.080868
14599.511719	-33.864979
14642.578125	-34.082958
14685.644531	-33.844929
14728.710938	-33.848289
14771.777344	-34.108860
14814.843750	-34.542191
14857.910156	-34.044079
14900.976562	-34.093304
14944.042969	-33.818081
14987.109375	-33.865822
15030.175781	-33.632507
15073.242188	-33.994865
15116.308594	-34.438625
15159.375000	-34.375420
15202.441406	-33.890038
15245.507812	-34.017582
15288.574219	-33.856079
15331.640625	-33.891129
15374.707031	-34.724205
15417.773438	-34.178940
15460.839844	-33.721645
15503.906250	-33.936211
15546.972656	-34.528782
15590.039062	-34.476299
15633.105469	-34.073704
15676.171875	-34.064281
15719.238281	-34.428432
15762.304688	-34.421700
15805.371094	-34.591885
15848.437500	-34.528152
15891.503906	-34.709427
15934.570312	-34.885921
15977.636719	-34.364117
16020.703125	-34.601822
16063.769531	-34.840603
16106.835938	-34.458294
16149.902344	-34.337646
16192.968750	-34.344990
16236.035156	-34.164028
16279.101562	-33.891624
16322.167969	-34.093712
16365.234375	-34.279343
16408.300781	-34.459305
16451.367188	-34.914032
16494.433594	-34.602314
16537.500000	-34.507828
16580.566406	-34.659069
16623.632812	-34.361111
16666.699219	-34.550503
16709.765625	-34.902740
16752.832031	-34.624390
16795.898438	-34.600349
16838.964844	-34.478008
16882.031250	-34.837162
16925.097656	-34.737396
16968.164062	-34.964237
17011.230469	-35.296555
17054.296875	-34.987564
17097.363281	-34.973652
17140.429688	-34.872646
17183.496094	-34.631237
17226.562500	-34.759354
17269.628906	-35.588314
17312.695312	-35.350132
17355.761719	-35.278763
17398.828125	-35.251450
17441.894531	-35.195374
17484.960938	-34.782959
17528.027344	-34.906368
17571.093750	-34.724895
17614.160156	-34.998795
17657.226562	-34.951744
17700.292969	-34.908165
17743.359375	-35.524628
17786.425781	-35.393822
17829.492188	-34.936443
17872.558594	-35.318485
17915.625000	-35.522842
17958.691406	-35.687798
18001.757812	-35.605843
18044.824219	-35.391941
18087.890625	-35.579269
18130.957031	-35.740276
18174.023438	-35.693295
18217.089844	-35.778931
18260.156250	-35.889290
18303.222656	-36.056255
18346.289062	-35.618324
18389.355469	-35.460846
18432.421875	-34.894627
18475.488281	-34.975830
18518.554688	-35.744438
18561.621094	-35.613888
18604.687500	-35.803303
18647.753906	-36.223904
18690.820312	-36.032848
18733.886719	-36.012562
18776.953125	-36.094296
18820.019531	-35.890087
18863.085938	-36.358475
18906.152344	-36.446404
18949.218750	-36.072735
18992.285156	-35.597080
19035.351562	-35.863823
19078.417969	-35.850742
19121.484375	-35.307629
19164.550781	-35.488998
19207.617188	-35.818558
19250.683594	-36.271145
19293.750000	-36.490765
19336.816406	-36.211487
19379.882812	-36.105400
19422.949219	-36.031120
19466.015625	-35.719631
19509.082031	-35.315182
19552.148438	-35.742260
19595.214844	-36.120960
19638.281250	-36.088680
19681.347656	-36.136700
19724.414062	-35.726242
19767.480469	-35.625797
19810.546875	-35.798969
19853.613281	-35.908981
19896.679688	-35.987259
19939.746094	-36.334656
19982.812500	-36.036167
20025.878906	-35.670753
20068.945312	-36.207539
20112.011719	-36.235729
20155.078125	-36.410831
20198.144531	-36.506779
20241.210938	-36.499596
20284.277344	-36.611046
20327.343750	-36.364784
20370.410156	-36.911068
20413.476562	-37.085857
20456.542969	-36.747864
20499.609375	-36.717621
20542.675781	-36.735806
20585.742188	-36.811775
20628.808594	-36.724003
20671.875000	-36.507423
20714.941406	-36.445621
20758.007812	-36.502174
20801.074219	-36.874290
20844.140625	-36.550674
20887.207031	-36.491650
20930.273438	-36.743000
20973.339844	-36.689571
21016.406250	-36.691498
21059.472656	-36.701141
21102.539062	-37.106144
21145.605469	-36.949322
21188.671875	-37.483498
21231.738281	-37.286983
21274.804688	-36.927654
21317.871094	-36.972107
21360.937500	-37.265770
21404.003906	-37.391125
21447.070312	-37.149166
21490.136719	-37.769676
21533.203125	-37.630455
21576.269531	-37.809666
21619.335938	-38.116333
21662.402344	-38.554588
21705.468750	-38.816353
21748.535156	-39.021191
21791.601562	-39.604797
21834.667969	-39.919914
21877.734375	-41.103527
21920.800781	-42.676350
21963.867188	-44.510273
22006.933594	-46.772766
