Frequency (Hz)	Level (dB)
43.066406	-17.818073
86.132812	-14.857347
129.199219	-11.418228
172.265625	-11.187407
215.332031	-11.882505
258.398438	-12.204757
301.464844	-12.345898
344.531250	-12.756534
387.597656	-12.880404
430.664062	-13.131119
473.730469	-13.368366
516.796875	-13.941282
559.863281	-14.395525
602.929688	-14.324630
645.996094	-14.356361
689.062500	-14.815158
732.128906	-15.162414
775.195312	-15.703373
818.261719	-16.069609
861.328125	-16.396622
904.394531	-16.610819
947.460938	-16.635923
990.527344	-16.666609
1033.593750	-16.842501
1076.660156	-17.160246
1119.726562	-17.409389
1162.792969	-17.011139
1205.859375	-17.506176
1248.925781	-18.303852
1291.992188	-18.583269
1335.058594	-17.984423
1378.125000	-18.095993
1421.191406	-18.440422
1464.257812	-18.727503
1507.324219	-19.057964
1550.390625	-19.000957
1593.457031	-19.125519
1636.523438	-19.464710
1679.589844	-19.282564
1722.656250	-19.005787
1765.722656	-19.373676
1808.789062	-19.854418
1851.855469	-20.110958
1894.921875	-20.629250
1937.988281	-20.421213
1981.054688	-19.837044
2024.121094	-19.832714
2067.187500	-20.059942
2110.253906	-20.596411
2153.320312	-20.569294
2196.386719	-20.546999
2239.453125	-20.578062
2282.519531	-20.535625
2325.585938	-20.450535
2368.652344	-20.424437
2411.718750	-20.983162
2454.785156	-21.495811
2497.851562	-21.274883
2540.917969	-20.806108
2583.984375	-21.215977
2627.050781	-21.546011
2670.117188	-21.416491
2713.183594	-21.248880
2756.250000	-21.433226
2799.316406	-21.470966
2842.382812	-21.585226
2885.449219	-21.798641
2928.515625	-21.545902
2971.582031	-22.108492
3014.648438	-22.381428
3057.714844	-22.115734
3100.781250	-22.003338
3143.847656	-21.732645
3186.914062	-22.031782
3229.980469	-22.326385
3273.046875	-22.250444
3316.113281	-21.906918
3359.179688	-22.508101
3402.246094	-22.711893
3445.312500	-22.666767
3488.378906	-22.609646
3531.445312	-22.278271
3574.511719	-22.497774
3617.578125	-22.839544
3660.644531	-22.381092
3703.710938	-22.125383
3746.777344	-22.764360
3789.843750	-22.632736
3832.910156	-22.942171
3875.976562	-22.805788
3919.042969	-23.146202
3962.109375	-23.332466
4005.175781	-23.259823
4048.242188	-23.727654
4091.308594	-23.807295
4134.375000	-23.362728
4177.441406	-23.293825
4220.507812	-23.608252
4263.574219	-23.826197
4306.640625	-24.067165
4349.707031	-23.789169
4392.773438	-23.784502
4435.839844	-23.969530
4478.906250	-23.689808
4521.972656	-23.745241
4565.039062	-23.819876
4608.105469	-24.066301
4651.171875	-24.520695
4694.238281	-24.339998
4737.304688	-23.861946
4780.371094	-23.840080
4823.437500	-24.118610
4866.503906	-24.091608
4909.570312	-24.168852
4952.636719	-24.732201
4995.703125	-24.761656
5038.769531	-24.799988
5081.835938	-24.373070
5124.902344	-24.652679
5167.968750	-24.430014
5211.035156	-24.472544
5254.101562	-24.851631
5297.167969	-24.907257
5340.234375	-24.748602
5383.300781	-24.796917
5426.367188	-24.879753
5469.433594	-25.009432
5512.500000	-25.055771
5555.566406	-25.098618
5598.632812	-24.968523
5641.699219	-24.857407
5684.765625	-24.395433
5727.832031	-24.701523
5770.898438	-25.236683
5813.964844	-25.409218
5857.031250	-25.166964
5900.097656	-24.983826
5943.164062	-24.741608
5986.230469	-25.294527
6029.296875	-25.256628
6072.363281	-25.479292
6115.429688	-25.652739
6158.496094	-25.530399
6201.562500	-25.873055
6244.628906	-25.589725
6287.695312	-25.523819
6330.761719	-25.746174
6373.828125	-25.718029
6416.894531	-25.383884
6459.960938	-25.247053
6503.027344	-25.526596
6546.093750	-25.827061
6589.160156	-26.158710
6632.226562	-26.439093
6675.292969	-26.066610
6718.359375	-25.853462
6761.425781	-25.977186
6804.492188	-25.987070
6847.558594	-25.693892
6890.625000	-26.092018
6933.691406	-26.029255
6976.757812	-25.969831
7019.824219	-26.136980
7062.890625	-26.496658
7105.957031	-26.757595
7149.023438	-26.718941
7192.089844	-26.773373
7235.156250	-26.318155
7278.222656	-26.140518
7321.289062	-26.246811
7364.355469	-26.311756
7407.421875	-26.805231
7450.488281	-26.788557
7493.554688	-26.688009
7536.621094	-26.601416
7579.687500	-26.890421
7622.753906	-27.159260
7665.820312	-27.416553
7708.886719	-27.664354
7751.953125	-26.723459
7795.019531	-26.630802
7838.085938	-26.685844
7881.152344	-27.210155
7924.218750	-27.409615
7967.285156	-26.874855
8010.351562	-26.920513
8053.417969	-26.922722
8096.484375	-27.212332
8139.550781	-27.340996
8182.617188	-27.155769
8225.683594	-27.113941
8268.750000	-27.518896
8311.816406	-27.455584
8354.882812	-27.224852
8397.949219	-27.517727
8441.015625	-27.789326
8484.082031	-27.754276
8527.148438	-27.971825
8570.214844	-27.667231
8613.281250	-27.488384
8656.347656	-27.986183
8699.414062	-27.722073
8742.480469	-27.730949
8785.546875	-27.260757
8828.613281	-27.418724
8871.679688	-27.739353
8914.746094	-27.850939
8957.812500	-28.041485
9000.878906	-28.296698
9043.945312	-27.992336
9087.011719	-27.904165
9130.078125	-27.973419
9173.144531	-28.011868
9216.210938	-28.256519
9259.277344	-28.669893
9302.343750	-28.207745
9345.410156	-28.070869
9388.476562	-28.343517
9431.542969	-28.041105
9474.609375	-27.797012
9517.675781	-28.025078
9560.742188	-28.469788
9603.808594	-28.556955
9646.875000	-28.834196
9689.941406	-28.951704
9733.007812	-28.626539
9776.074219	-28.603434
9819.140625	-28.940411
9862.207031	-28.461233
9905.273438	-28.227146
9948.339844	-28.314165
9991.406250	-28.798088
10034.472656	-28.272074
10077.539062	-27.908978
10120.605469	-28.358692
10163.671875	-28.778927
10206.738281	-28.553448
10249.804688	-28.767757
10292.871094	-28.812853
10335.937500	-29.350487
10379.003906	-29.269865
10422.070312	-28.909138
10465.136719	-28.551447
10508.203125	-28.553061
10551.269531	-28.866861
10594.335938	-28.807409
10637.402344	-28.989271
10680.468750	-28.944479
10723.535156	-28.869808
10766.601562	-29.703323
10809.667969	-29.489937
10852.734375	-29.294836
10895.800781	-29.450617
10938.867188	-29.342354
10981.933594	-28.993101
11025.000000	-29.057005
11068.066406	-29.303236
11111.132812	-29.138472
11154.199219	-29.416412
11197.265625	-29.708139
11240.332031	-29.517740
11283.398438	-29.162422
11326.464844	-29.360140
11369.531250	-29.435036
11412.597656	-29.590685
11455.664062	-29.832235
11498.730469	-29.481373
11541.796875	-29.392912
11584.863281	-29.788260
11627.929688	-29.664848
11670.996094	-30.117670
11714.062500	-29.560072
11757.128906	-29.375338
11800.195312	-29.574217
11843.261719	-29.884542
11886.328125	-30.208939
11929.394531	-30.254555
11972.460938	-30.274221
12015.527344	-30.285669
12058.593750	-30.338017
12101.660156	-29.887173
12144.726562	-29.951679
12187.792969	-30.099915
12230.859375	-29.857403
12273.925781	-29.846338
12316.992188	-29.982592
12360.058594	-29.871849
12403.125000	-30.056192
12446.191406	-30.274603
12489.257812	-30.330086
12532.324219	-30.601440
12575.390625	-30.458534
12618.457031	-30.574577
12661.523438	-30.860603
12704.589844	-30.511524
12747.656250	-30.471725
12790.722656	-30.319492
12833.789062	-30.347979
12876.855469	-30.379171
12919.921875	-30.465254
12962.988281	-30.772446
13006.054688	-31.033525
13049.121094	-31.271112
13092.187500	-31.377563
13135.253906	-31.273287
13178.320312	-31.072927
13221.386719	-31.041468
13264.453125	-31.214197
13307.519531	-31.611395
13350.585938	-31.267349
13393.652344	-30.741518
13436.718750	-30.775042
13479.785156	-30.956829
13522.851562	-31.039055
13565.917969	-31.124262
13608.984375	-31.328953
13652.050781	-31.047180
13695.117188	-31.714523
13738.183594	-31.641672
13781.250000	-31.219641
13824.316406	-31.274923
13867.382812	-31.319931
13910.449219	-31.677111
13953.515625	-31.546949
13996.582031	-31.717039
14039.648438	-31.136656
14082.714844	-30.925537
14125.781250	-31.523859
14168.847656	-31.400805
14211.914062	-31.248764
14254.980469	-31.156204
14298.046875	-31.166014
14341.113281	-31.588938
14384.179688	-31.364502
14427.246094	-31.545267
14470.312500	-31.482304
14513.378906	-31.381140
14556.445312	-31.460861
14599.511719	-31.316574
14642.578125	-31.765930
14685.644531	-31.714848
14728.710938	-31.996870
14771.777344	-32.254795
14814.843750	-31.798117
14857.910156	-32.020466
14900.976562	-31.715286
14944.042969	-31.679111
14987.109375	-32.238873
15030.175781	-32.121799
15073.242188	-32.432476
15116.308594	-32.245796
15159.375000	-31.708975
15202.441406	-31.862494
15245.507812	-32.034958
15288.574219	-32.068455
15331.640625	-32.248871
15374.707031	-32.227844
15417.773438	-32.140133
15460.839844	-32.285919
15503.906250	-32.118111
15546.972656	-31.959784
15590.039062	-32.334358
15633.105469	-32.508766
15676.171875	-32.266491
15719.238281	-32.823719
15762.304688	-32.714539
15805.371094	-32.331600
15848.437500	-32.512169
15891.503906	-32.435024
15934.570312	-32.522064
15977.636719	-32.625660
16020.703125	-32.889862
16063.769531	-33.083088
16106.835938	-33.234875
16149.902344	-32.826485
16192.968750	-32.980858
16236.035156	-33.533588
16279.101562	-33.080959
16322.167969	-32.475574
16365.234375	-32.307392
16408.300781	-32.561234
16451.367188	-33.071636
16494.433594	-32.944225
16537.500000	-33.091911
16580.566406	-32.999084
16623.632812	-33.149712
16666.699219	-33.236713
16709.765625	-33.385677
16752.832031	-33.433693
16795.898438	-33.341095
16838.964844	-33.012909
16882.031250	-33.106129
16925.097656	-33.496326
16968.164062	-33.361103
17011.230469	-33.297016
17054.296875	-33.364594
17097.363281	-33.559887
17140.429688	-33.273304
17183.496094	-33.202686
17226.562500	-32.949200
17269.628906	-33.330147
17312.695312	-33.565842
17355.761719	-33.818035
17398.828125	-33.563690
17441.894531	-33.542290
17484.960938	-33.758904
17528.027344	-33.935905
17571.093750	-33.682613
17614.160156	-33.387737
17657.226562	-33.417709
17700.292969	-34.294346
17743.359375	-34.589504
17786.425781	-34.366215
17829.492188	-34.101849
17872.558594	-34.284397
17915.625000	-34.280239
17958.691406	-33.972580
18001.757812	-33.975723
18044.824219	-34.185223
18087.890625	-34.023346
18130.957031	-33.991241
18174.023438	-34.355553
18217.089844	-34.070164
18260.156250	-34.040077
18303.222656	-34.529972
18346.289062	-34.933380
18389.355469	-34.948273
18432.421875	-34.550949
18475.488281	-34.296440
18518.554688	-34.649609
18561.621094	-34.756809
18604.687500	-34.686039
18647.753906	-34.420521
18690.820312	-34.783253
18733.886719	-34.919521
18776.953125	-34.757690
18820.019531	-35.348892
18863.085938	-34.854042
18906.152344	-34.812229
18949.218750	-34.657169
18992.285156	-34.661274
19035.351562	-34.467640
19078.417969	-34.642666
19121.484375	-35.146664
19164.550781	-35.514908
19207.617188	-35.757835
19250.683594	-35.384212
19293.750000	-34.725536
19336.816406	-35.099930
19379.882812	-35.731010
19422.949219	-35.984764
19466.015625	-35.393448
19509.082031	-35.402729
19552.148438	-35.382782
19595.214844	-35.488354
19638.281250	-35.467651
19681.347656	-35.491077
19724.414062	-35.878815
19767.480469	-36.351761
19810.546875	-36.445103
19853.613281	-36.088005
19896.679688	-35.942020
19939.746094	-35.741856
19982.812500	-35.735455
20025.878906	-35.399170
20068.945312	-36.087315
20112.011719	-36.523140
20155.078125	-36.472515
20198.144531	-36.661167
20241.210938	-36.294838
20284.277344	-36.150665
20327.343750	-36.610901
20370.410156	-36.655872
20413.476562	-36.546902
20456.542969	-36.389774
20499.609375	-36.205074
20542.675781	-36.721802
20585.742188	-36.798119
20628.808594	-36.943745
20671.875000	-36.979813
20714.941406	-36.741711
20758.007812	-36.639297
20801.074219	-36.875668
20844.140625	-37.186501
20887.207031	-37.127712
20930.273438	-37.277309
20973.339844	-37.429810
21016.406250	-37.582767
21059.472656	-37.159595
21102.539062	-37.502312
21145.605469	-38.023132
21188.671875	-37.894245
21231.738281	-37.395599
21274.804688	-37.861870
21317.871094	-38.280884
21360.937500	-38.126774
21404.003906	-37.845551
21447.070312	-37.945381
21490.136719	-38.421261
21533.203125	-38.297966
21576.269531	-38.322041
21619.335938	-38.012684
21662.402344	-37.969517
21705.468750	-38.152233
21748.535156	-38.391251
21791.601562	-38.310390
21834.667969	-38.099022
21877.734375	-38.079567
21920.800781	-37.956753
21963.867188	-37.570412
22006.933594	-37.261551
