Frequency (Hz)	Level (dB)
43.066406	-34.396343
86.132812	-27.837601
129.199219	-23.754457
172.265625	-23.071823
215.332031	-23.693108
258.398438	-23.560459
301.464844	-23.606112
344.531250	-23.832241
387.597656	-24.064306
430.664062	-24.248568
473.730469	-24.522152
516.796875	-24.450285
559.863281	-24.810629
602.929688	-24.454538
645.996094	-25.009937
689.062500	-25.681915
732.128906	-25.835711
775.195312	-26.394791
818.261719	-26.734718
861.328125	-27.139446
904.394531	-27.678499
947.460938	-28.039816
990.527344	-28.049545
1033.593750	-28.274063
1076.660156	-28.412842
1119.726562	-28.468002
1162.792969	-28.691689
1205.859375	-29.544062
1248.925781	-30.049984
1291.992188	-29.680614
1335.058594	-30.024021
1378.125000	-30.329052
1421.191406	-30.793957
1464.257812	-31.410738
1507.324219	-31.427931
1550.390625	-31.537558
1593.457031	-32.502045
1636.523438	-32.731125
1679.589844	-32.381821
1722.656250	-32.287891
1765.722656	-32.534546
1808.789062	-33.229435
1851.855469	-33.060307
1894.921875	-33.363827
1937.988281	-33.681969
1981.054688	-34.325706
2024.121094	-34.147053
2067.187500	-34.084019
2110.253906	-34.359009
2153.320312	-34.761593
2196.386719	-34.891083
2239.453125	-34.980873
2282.519531	-34.830688
2325.585938	-34.739529
2368.652344	-35.014660
2411.718750	-35.561771
2454.785156	-35.936932
2497.851562	-35.876514
2540.917969	-35.870758
2583.984375	-36.202267
2627.050781	-36.471603
2670.117188	-36.600880
2713.183594	-36.645172
2756.250000	-36.570728
2799.316406	-36.757652
2842.382812	-37.030720
2885.449219	-36.724018
2928.515625	-37.039833
2971.582031	-37.539524
3014.648438	-37.940491
3057.714844	-37.944542
3100.781250	-37.680172
3143.847656	-37.519100
3186.914062	-37.972126
3229.980469	-38.264053
3273.046875	-38.583237
3316.113281	-37.974449
3359.179688	-38.253475
3402.246094	-38.644169
3445.312500	-38.495029
3488.378906	-39.092430
3531.445312	-39.038555
3574.511719	-39.080662
3617.578125	-39.134876
3660.644531	-38.887096
3703.710938	-38.733849
3746.777344	-39.540878
3789.843750	-39.517689
3832.910156	-39.391907
3875.976562	-39.505634
3919.042969	-39.907696
3962.109375	-40.530861
4005.175781	-40.052303
4048.242188	-39.857346
4091.308594	-40.072773
4134.375000	-39.865284
4177.441406	-40.198528
4220.507812	-40.285675
4263.574219	-40.159561
4306.640625	-40.301727
4349.707031	-40.419552
4392.773438	-40.284065
4435.839844	-40.473412
4478.906250	-40.629440
4521.972656	-40.759430
4565.039062	-40.925747
4608.105469	-41.050400
4651.171875	-41.482800
4694.238281	-40.980804
4737.304688	-40.929523
4780.371094	-40.813728
4823.437500	-41.077179
4866.503906	-41.302021
4909.570312	-41.666618
4952.636719	-41.596603
4995.703125	-41.411407
5038.769531	-41.787674
5081.835938	-41.718204
5124.902344	-41.793442
5167.968750	-41.413342
5211.035156	-41.198032
5254.101562	-41.769646
5297.167969	-41.930870
5340.234375	-41.726395
5383.300781	-42.003593
5426.367188	-42.166512
5469.433594	-42.073769
5512.500000	-42.363041
5555.566406	-42.236771
5598.632812	-42.260345
5641.699219	-42.414955
5684.765625	-42.528378
5727.832031	-42.610577
5770.898438	-43.032688
5813.964844	-42.727482
5857.031250	-42.421665
5900.097656	-42.880009
5943.164062	-42.897251
5986.230469	-42.755432
6029.296875	-42.802589
6072.363281	-43.052784
6115.429688	-43.059811
6158.496094	-43.097164
6201.562500	-43.377228
6244.628906	-43.197170
6287.695312	-43.292362
6330.761719	-43.157650
6373.828125	-42.830296
6416.894531	-42.664242
6459.960938	-42.554207
6503.027344	-43.009670
6546.093750	-43.881882
6589.160156	-43.695450
6632.226562	-43.888241
6675.292969	-44.041443
6718.359375	-43.911839
6761.425781	-43.932835
6804.492188	-43.671310
6847.558594	-43.628944
6890.625000	-43.682884
6933.691406	-43.437321
6976.757812	-43.414120
7019.824219	-43.666088
7062.890625	-43.568939
7105.957031	-43.995235
7149.023438	-44.094524
7192.089844	-43.849998
7235.156250	-43.995152
7278.222656	-44.059151
7321.289062	-43.855511
7364.355469	-43.860203
7407.421875	-44.282921
7450.488281	-44.343960
7493.554688	-44.916954
7536.621094	-45.146610
7579.687500	-45.062542
7622.753906	-45.090324
7665.820312	-44.659019
7708.886719	-44.457031
7751.953125	-44.170921
7795.019531	-44.457386
7838.085938	-44.671116
7881.152344	-44.792820
7924.218750	-44.617359
7967.285156	-44.992851
8010.351562	-45.571606
8053.417969	-45.340504
8096.484375	-44.892731
8139.550781	-44.815060
8182.617188	-44.697754
8225.683594	-44.898178
8268.750000	-44.820747
8311.816406	-44.743977
8354.882812	-44.764378
8397.949219	-44.584618
8441.015625	-45.585602
8484.082031	-45.653904
8527.148438	-45.289650
8570.214844	-45.352364
8613.281250	-45.119263
8656.347656	-45.290394
8699.414062	-45.208282
8742.480469	-45.671238
8785.546875	-44.795105
8828.613281	-44.572235
8871.679688	-45.675430
8914.746094	-45.781437
8957.812500	-45.261505
9000.878906	-45.928581
9043.945312	-45.704498
9087.011719	-45.255013
9130.078125	-45.594685
9173.144531	-45.348698
9216.210938	-45.812271
9259.277344	-45.418633
9302.343750	-45.376453
9345.410156	-46.032040
9388.476562	-46.139038
9431.542969	-45.613728
9474.609375	-45.424541
9517.675781	-45.548695
9560.742188	-45.728584
9603.808594	-46.115707
9646.875000	-46.510174
9689.941406	-45.859627
9733.007812	-45.542431
9776.074219	-45.917549
9819.140625	-46.175705
9862.207031	-45.830517
9905.273438	-45.898411
9948.339844	-46.117180
9991.406250	-46.395313
10034.472656	-46.338936
10077.539062	-45.617958
10120.605469	-45.565891
10163.671875	-46.139141
10206.738281	-46.304604
10249.804688	-46.431145
10292.871094	-46.021313
10335.937500	-46.301296
10379.003906	-46.255722
10422.070312	-46.293613
10465.136719	-45.853542
10508.203125	-46.245537
10551.269531	-46.741199
10594.335938	-46.458946
10637.402344	-46.476292
10680.468750	-46.824684
10723.535156	-46.387402
10766.601562	-46.657112
10809.667969	-46.579868
10852.734375	-46.119335
10895.800781	-46.445309
10938.867188	-46.328182
10981.933594	-46.440632
11025.000000	-46.402077
11068.066406	-46.938736
11111.132812	-46.873074
11154.199219	-46.978432
11197.265625	-47.020401
11240.332031	-46.942070
11283.398438	-46.594925
11326.464844	-46.597904
11369.531250	-46.600071
11412.597656	-47.047855
11455.664062	-47.247280
11498.730469	-47.053883
11541.796875	-46.901749
11584.863281	-46.624821
11627.929688	-46.803158
11670.996094	-47.110870
11714.062500	-46.724991
11757.128906	-46.795628
11800.195312	-47.047440
11843.261719	-47.441006
11886.328125	-47.242161
11929.394531	-47.616951
11972.460938	-47.505142
12015.527344	-46.929108
12058.593750	-47.116104
12101.660156	-46.469597
12144.726562	-46.836025
12187.792969	-47.438164
12230.859375	-47.204632
12273.925781	-47.332401
12316.992188	-47.556446
12360.058594	-47.319897
12403.125000	-47.719620
12446.191406	-47.556030
12489.257812	-47.377098
12532.324219	-47.660305
12575.390625	-47.598736
12618.457031	-47.478222
12661.523438	-47.645023
12704.589844	-47.049397
12747.656250	-46.977921
12790.722656	-47.542789
12833.789062	-47.682991
12876.855469	-47.639576
12919.921875	-47.426796
12962.988281	-47.456688
13006.054688	-47.552380
13049.121094	-47.465408
13092.187500	-47.440662
13135.253906	-47.628841
13178.320312	-47.517281
13221.386719	-47.498219
13264.453125	-47.616848
13307.519531	-47.588043
13350.585938	-47.536583
13393.652344	-47.945881
13436.718750	-48.126312
13479.785156	-48.048470
13522.851562	-47.859566
13565.917969	-47.634899
13608.984375	-47.692406
13652.050781	-48.151737
13695.117188	-48.187969
13738.183594	-48.095909
13781.250000	-47.669613
13824.316406	-47.542606
13867.382812	-47.889618
13910.449219	-47.704227
13953.515625	-48.000507
13996.582031	-48.218563
14039.648438	-48.036568
14082.714844	-48.035530
14125.781250	-48.236088
14168.847656	-48.291592
14211.914062	-48.537540
14254.980469	-48.612919
14298.046875	-47.736702
14341.113281	-48.049992
14384.179688	-48.705845
14427.246094	-48.457195
14470.312500	-48.460575
14513.378906	-48.109329
14556.445312	-47.894165
14599.511719	-48.248680
14642.578125	-48.439846
14685.644531	-49.053493
14728.710938	-48.537758
14771.777344	-48.480186
14814.843750	-48.452042
14857.910156	-48.167904
14900.976562	-48.359909
14944.042969	-48.281738
14987.109375	-48.410183
15030.175781	-48.726009
15073.242188	-49.116238
15116.308594	-48.718506
15159.375000	-48.555420
15202.441406	-48.638733
15245.507812	-48.666927
15288.574219	-48.745205
15331.640625	-48.575138
15374.707031	-48.805984
15417.773438	-48.790115
15460.839844	-48.953403
15503.906250	-48.503426
15546.972656	-48.537411
15590.039062	-48.592434
15633.105469	-49.067078
15676.171875	-49.147312
15719.238281	-48.791180
15762.304688	-49.114491
15805.371094	-49.135754
15848.437500	-48.812405
15891.503906	-48.645344
15934.570312	-48.552036
15977.636719	-48.546104
16020.703125	-48.730492
16063.769531	-48.885651
16106.835938	-49.059921
16149.902344	-48.824459
16192.968750	-48.773907
16236.035156	-48.738438
16279.101562	-48.773460
16322.167969	-49.359322
16365.234375	-49.105961
16408.300781	-48.595505
16451.367188	-48.803001
16494.433594	-48.704197
16537.500000	-49.225811
16580.566406	-49.370975
16623.632812	-48.860508
16666.699219	-49.013832
16709.765625	-49.271210
16752.832031	-49.215157
16795.898438	-49.170216
16838.964844	-49.193237
16882.031250	-49.121185
16925.097656	-49.250248
16968.164062	-49.122089
17011.230469	-48.899010
17054.296875	-49.106586
17097.363281	-49.847443
17140.429688	-49.811256
17183.496094	-49.824070
17226.562500	-49.704300
17269.628906	-49.488747
17312.695312	-49.492443
17355.761719	-49.235523
17398.828125	-49.145733
17441.894531	-48.716763
17484.960938	-48.844807
17528.027344	-49.356503
17571.093750	-49.599541
17614.160156	-49.119671
17657.226562	-49.561424
17700.292969	-49.760994
17743.359375	-50.148380
17786.425781	-49.759380
17829.492188	-49.208855
17872.558594	-49.376797
17915.625000	-49.873146
17958.691406	-49.865894
18001.757812	-49.682446
18044.824219	-49.586334
18087.890625	-49.551643
18130.957031	-49.314400
18174.023438	-49.211323
18217.089844	-49.378757
18260.156250	-49.788265
18303.222656	-49.969547
18346.289062	-49.918663
18389.355469	-49.926395
18432.421875	-49.550426
18475.488281	-49.336823
18518.554688	-49.791164
18561.621094	-50.113434
18604.687500	-49.933613
18647.753906	-50.173069
18690.820312	-50.326992
18733.886719	-50.165928
18776.953125	-49.916805
18820.019531	-50.039028
18863.085938	-49.445747
18906.152344	-49.338482
18949.218750	-50.001064
18992.285156	-49.990135
19035.351562	-49.579502
19078.417969	-49.707031
19121.484375	-50.205708
19164.550781	-49.426926
19207.617188	-49.593159
19250.683594	-49.693901
19293.750000	-49.700371
19336.816406	-49.970390
19379.882812	-50.357578
19422.949219	-49.928989
19466.015625	-49.693539
19509.082031	-49.931904
19552.148438	-49.811943
19595.214844	-50.192360
19638.281250	-50.684402
19681.347656	-50.106491
19724.414062	-49.478062
19767.480469	-49.884567
19810.546875	-50.449268
19853.613281	-50.611980
19896.679688	-50.237965
19939.746094	-49.879593
19982.812500	-49.863552
20025.878906	-49.862865
20068.945312	-50.065403
20112.011719	-49.986889
20155.078125	-49.965328
20198.144531	-50.244301
20241.210938	-49.998135
20284.277344	-50.229904
20327.343750	-50.441589
20370.410156	-50.139099
20413.476562	-50.166893
20456.542969	-50.274086
20499.609375	-50.263325
20542.675781	-50.729607
20585.742188	-50.581547
20628.808594	-50.742886
20671.875000	-50.506649
20714.941406	-50.361912
20758.007812	-50.472523
20801.074219	-50.460918
20844.140625	-50.899158
20887.207031	-51.075882
20930.273438	-50.663250
20973.339844	-50.452442
21016.406250	-50.869926
21059.472656	-50.964249
21102.539062	-50.595928
21145.605469	-50.773335
21188.671875	-50.647640
21231.738281	-50.629627
21274.804688	-50.942299
21317.871094	-51.058834
21360.937500	-50.770744
21404.003906	-50.996349
21447.070312	-51.160831
21490.136719	-51.595455
21533.203125	-51.785851
21576.269531	-51.937134
21619.335938	-51.619038
21662.402344	-52.004978
21705.468750	-53.318050
21748.535156	-53.464539
21791.601562	-53.458019
21834.667969	-54.071865
21877.734375	-55.559525
21920.800781	-57.428734
21963.867188	-60.415840
22006.933594	-64.606209
