Frequency (Hz)	Level (dB)
43.066406	-21.706114
86.132812	-16.775543
129.199219	-13.359177
172.265625	-12.954374
215.332031	-13.522194
258.398438	-14.126838
301.464844	-14.154839
344.531250	-14.117153
387.597656	-14.319965
430.664062	-14.686259
473.730469	-15.049361
516.796875	-15.628839
559.863281	-15.891592
602.929688	-16.011225
645.996094	-16.311876
689.062500	-16.879038
732.128906	-16.698339
775.195312	-17.298462
818.261719	-17.803970
861.328125	-17.946218
904.394531	-18.611925
947.460938	-19.200666
990.527344	-19.466497
1033.593750	-19.545467
1076.660156	-19.704729
1119.726562	-20.193666
1162.792969	-20.366688
1205.859375	-20.580891
1248.925781	-20.977739
1291.992188	-21.590252
1335.058594	-21.779839
1378.125000	-21.563469
1421.191406	-21.978840
1464.257812	-22.477076
1507.324219	-22.277315
1550.390625	-22.279766
1593.457031	-22.628963
1636.523438	-22.765610
1679.589844	-22.983135
1722.656250	-23.334326
1765.722656	-23.311640
1808.789062	-23.269468
1851.855469	-23.652102
1894.921875	-23.978842
1937.988281	-24.024227
1981.054688	-24.108664
2024.121094	-24.498819
2067.187500	-24.433029
2110.253906	-24.665823
2153.320312	-24.577688
2196.386719	-24.804956
2239.453125	-24.862886
2282.519531	-24.864893
2325.585938	-25.032515
2368.652344	-25.350416
2411.718750	-25.516928
2454.785156	-25.910170
2497.851562	-25.788120
2540.917969	-25.512268
2583.984375	-25.732544
2627.050781	-26.043282
2670.117188	-26.146782
2713.183594	-25.987131
2756.250000	-26.417725
2799.316406	-26.244152
2842.382812	-26.219126
2885.449219	-26.642317
2928.515625	-26.592964
2971.582031	-26.778526
3014.648438	-27.199677
3057.714844	-26.774408
3100.781250	-26.779516
3143.847656	-27.052982
3186.914062	-26.964266
3229.980469	-26.893230
3273.046875	-27.349831
3316.113281	-27.869225
3359.179688	-27.485113
3402.246094	-27.499662
3445.312500	-27.787163
3488.378906	-27.766277
3531.445312	-27.577507
3574.511719	-27.823877
3617.578125	-28.069637
3660.644531	-27.803759
3703.710938	-27.794212
3746.777344	-28.498169
3789.843750	-28.467630
3832.910156	-28.406631
3875.976562	-28.152424
3919.042969	-28.484764
3962.109375	-28.635679
4005.175781	-28.852474
4048.242188	-28.825798
4091.308594	-29.059738
4134.375000	-28.856422
4177.441406	-28.644688
4220.507812	-28.536800
4263.574219	-28.518583
4306.640625	-28.928463
4349.707031	-28.728867
4392.773438	-28.850084
4435.839844	-29.229177
4478.906250	-29.066538
4521.972656	-29.603025
4565.039062	-29.595486
4608.105469	-29.497131
4651.171875	-29.599077
4694.238281	-29.458544
4737.304688	-28.660095
4780.371094	-28.567617
4823.437500	-29.255955
4866.503906	-29.515610
4909.570312	-29.665785
4952.636719	-29.359257
4995.703125	-29.573561
5038.769531	-29.923935
5081.835938	-29.710196
5124.902344	-29.929018
5167.968750	-29.973818
5211.035156	-29.935492
5254.101562	-30.502192
5297.167969	-30.157270
5340.234375	-30.118818
5383.300781	-30.245319
5426.367188	-30.337587
5469.433594	-30.364031
5512.500000	-30.235926
5555.566406	-30.257961
5598.632812	-30.222830
5641.699219	-30.174540
5684.765625	-30.017241
5727.832031	-30.225941
5770.898438	-30.696148
5813.964844	-30.805319
5857.031250	-30.542028
5900.097656	-30.570650
5943.164062	-30.410589
5986.230469	-30.426395
6029.296875	-30.462214
6072.363281	-30.744162
6115.429688	-30.852663
6158.496094	-30.682455
6201.562500	-30.818645
6244.628906	-30.740261
6287.695312	-30.855106
6330.761719	-31.092098
6373.828125	-30.828186
6416.894531	-30.792999
6459.960938	-30.817575
6503.027344	-31.125687
6546.093750	-31.501143
6589.160156	-31.552013
6632.226562	-31.907646
6675.292969	-31.441107
6718.359375	-31.237003
6761.425781	-31.203688
6804.492188	-31.629854
6847.558594	-31.708071
6890.625000	-32.047432
6933.691406	-31.928492
6976.757812	-31.535097
7019.824219	-31.196873
7062.890625	-31.709055
7105.957031	-31.867821
7149.023438	-31.749557
7192.089844	-32.171349
7235.156250	-32.010128
7278.222656	-31.673128
7321.289062	-31.816273
7364.355469	-31.841263
7407.421875	-31.744448
7450.488281	-32.027000
7493.554688	-31.894060
7536.621094	-31.831802
7579.687500	-32.108936
7622.753906	-32.168205
7665.820312	-32.263733
7708.886719	-32.310982
7751.953125	-32.424660
7795.019531	-32.250000
7838.085938	-32.216675
7881.152344	-32.276260
7924.218750	-32.304981
7967.285156	-32.583061
8010.351562	-32.444229
8053.417969	-32.536541
8096.484375	-32.494919
8139.550781	-32.359264
8182.617188	-32.423622
8225.683594	-32.329567
8268.750000	-32.760128
8311.816406	-32.436333
8354.882812	-32.337883
8397.949219	-32.700649
8441.015625	-33.044319
8484.082031	-32.567883
8527.148438	-32.752632
8570.214844	-33.264084
8613.281250	-33.324261
8656.347656	-33.145954
8699.414062	-32.700760
8742.480469	-33.176785
8785.546875	-33.136574
8828.613281	-33.250553
8871.679688	-33.444538
8914.746094	-33.209080
8957.812500	-33.273106
9000.878906	-33.502583
9043.945312	-33.032719
9087.011719	-33.436115
9130.078125	-33.644196
9173.144531	-33.526928
9216.210938	-33.666821
9259.277344	-33.622509
9302.343750	-33.529037
9345.410156	-33.362644
9388.476562	-33.087963
9431.542969	-33.126728
9474.609375	-33.305847
9517.675781	-33.404922
9560.742188	-33.295155
9603.808594	-33.365292
9646.875000	-33.676594
9689.941406	-33.990784
9733.007812	-33.955456
9776.074219	-33.451553
9819.140625	-33.851749
9862.207031	-34.029018
9905.273438	-33.857349
9948.339844	-33.494057
9991.406250	-33.777206
10034.472656	-33.979843
10077.539062	-33.750637
10120.605469	-33.978321
10163.671875	-33.966465
10206.738281	-33.810005
10249.804688	-34.024956
10292.871094	-34.141987
10335.937500	-33.979721
10379.003906	-34.071774
10422.070312	-34.100548
10465.136719	-33.663147
10508.203125	-33.621689
10551.269531	-34.242657
10594.335938	-34.345879
10637.402344	-34.427139
10680.468750	-34.443439
10723.535156	-34.417007
10766.601562	-34.857250
10809.667969	-35.134884
10852.734375	-34.638638
10895.800781	-34.461273
10938.867188	-34.262913
10981.933594	-34.447334
11025.000000	-34.545914
11068.066406	-34.761028
11111.132812	-34.762718
11154.199219	-34.908920
11197.265625	-34.676186
11240.332031	-34.335281
11283.398438	-34.274269
11326.464844	-34.391567
11369.531250	-34.672657
11412.597656	-34.687260
11455.664062	-34.609020
11498.730469	-34.674858
11541.796875	-34.494690
11584.863281	-34.650242
11627.929688	-34.714924
11670.996094	-35.482258
11714.062500	-34.996090
11757.128906	-34.917854
11800.195312	-34.992001
11843.261719	-35.029865
11886.328125	-35.018406
11929.394531	-34.800190
11972.460938	-35.006618
12015.527344	-34.909828
12058.593750	-35.041283
12101.660156	-35.115562
12144.726562	-34.816349
12187.792969	-34.879364
12230.859375	-35.240028
12273.925781	-35.069992
12316.992188	-35.198460
12360.058594	-35.649193
12403.125000	-35.461018
12446.191406	-35.489113
12489.257812	-35.305595
12532.324219	-35.650009
12575.390625	-35.622223
12618.457031	-35.825283
12661.523438	-35.704292
12704.589844	-35.767059
12747.656250	-35.691578
12790.722656	-35.592960
12833.789062	-35.664803
12876.855469	-35.525665
12919.921875	-35.348557
12962.988281	-35.330173
13006.054688	-35.176105
13049.121094	-35.439442
13092.187500	-35.689392
13135.253906	-35.651478
13178.320312	-36.252674
13221.386719	-36.067650
13264.453125	-35.927818
13307.519531	-36.310116
13350.585938	-35.852463
13393.652344	-35.677521
13436.718750	-36.052235
13479.785156	-36.005810
13522.851562	-36.000622
13565.917969	-35.748558
13608.984375	-35.857594
13652.050781	-36.222801
13695.117188	-36.402138
13738.183594	-36.073029
13781.250000	-36.305416
13824.316406	-36.209465
13867.382812	-35.804802
13910.449219	-36.353722
13953.515625	-36.558113
13996.582031	-36.164200
14039.648438	-35.824039
14082.714844	-36.091949
14125.781250	-36.196213
14168.847656	-36.374073
14211.914062	-36.355568
14254.980469	-36.258530
14298.046875	-36.434006
14341.113281	-36.589535
14384.179688	-36.688568
14427.246094	-36.697479
14470.312500	-36.673187
14513.378906	-36.460716
14556.445312	-36.559753
14599.511719	-36.531563
14642.578125	-36.227520
14685.644531	-36.424801
14728.710938	-36.672436
14771.777344	-37.033146
14814.843750	-37.171822
14857.910156	-36.820820
14900.976562	-36.873165
14944.042969	-36.987843
14987.109375	-36.930466
15030.175781	-36.518024
15073.242188	-36.595589
15116.308594	-36.957077
15159.375000	-36.505135
15202.441406	-36.395870
15245.507812	-36.776520
15288.574219	-36.892452
15331.640625	-36.858925
15374.707031	-37.018444
15417.773438	-36.802498
15460.839844	-36.603901
15503.906250	-36.975430
15546.972656	-36.826988
15590.039062	-37.030853
15633.105469	-37.098476
15676.171875	-37.171490
15719.238281	-37.521698
15762.304688	-37.590595
15805.371094	-37.662941
15848.437500	-37.412941
15891.503906	-37.126839
15934.570312	-37.272739
15977.636719	-37.149673
16020.703125	-37.363476
16063.769531	-37.798336
16106.835938	-37.404255
16149.902344	-37.101406
16192.968750	-37.253986
16236.035156	-37.342091
16279.101562	-37.470528
16322.167969	-37.258038
16365.234375	-37.278915
16408.300781	-37.734077
16451.367188	-37.842472
16494.433594	-37.651352
16537.500000	-37.552940
16580.566406	-37.711273
16623.632812	-37.750511
16666.699219	-37.686905
16709.765625	-38.034355
16752.832031	-37.862583
16795.898438	-38.235420
16838.964844	-38.189449
16882.031250	-37.785110
16925.097656	-37.780647
16968.164062	-37.739902
17011.230469	-37.881287
17054.296875	-37.959106
17097.363281	-38.172424
17140.429688	-37.647930
17183.496094	-37.782372
17226.562500	-37.647934
17269.628906	-38.067402
17312.695312	-38.093380
17355.761719	-37.946236
17398.828125	-38.023243
17441.894531	-38.562443
17484.960938	-38.290287
17528.027344	-38.304695
17571.093750	-37.905975
17614.160156	-38.169003
17657.226562	-38.222061
17700.292969	-38.131378
17743.359375	-38.374443
17786.425781	-38.270618
17829.492188	-38.107399
17872.558594	-38.436474
17915.625000	-38.702240
17958.691406	-38.199688
18001.757812	-38.290798
18044.824219	-38.713779
18087.890625	-38.702255
18130.957031	-38.664669
18174.023438	-38.686462
18217.089844	-38.528095
18260.156250	-38.700497
18303.222656	-39.080505
18346.289062	-39.141842
18389.355469	-39.201103
18432.421875	-38.490292
18475.488281	-38.808250
18518.554688	-39.013485
18561.621094	-38.688377
18604.687500	-38.783142
18647.753906	-38.854477
18690.820312	-39.182644
18733.886719	-39.302742
18776.953125	-39.601608
18820.019531	-39.709335
18863.085938	-39.159203
18906.152344	-38.931042
18949.218750	-39.072807
18992.285156	-39.060474
19035.351562	-39.054928
19078.417969	-39.187069
19121.484375	-39.267315
19164.550781	-39.368168
19207.617188	-39.649551
19250.683594	-39.880287
19293.750000	-39.811626
19336.816406	-39.799576
19379.882812	-39.590702
19422.949219	-39.593868
19466.015625	-39.730888
19509.082031	-39.408485
19552.148438	-39.119999
19595.214844	-39.353279
19638.281250	-39.452816
19681.347656	-39.561169
19724.414062	-39.328854
19767.480469	-39.697254
19810.546875	-39.831490
19853.613281	-39.903576
19896.679688	-39.927994
19939.746094	-39.527645
19982.812500	-39.501759
20025.878906	-39.396393
20068.945312	-39.376503
20112.011719	-40.094082
20155.078125	-40.097580
20198.144531	-40.010502
20241.210938	-39.986179
20284.277344	-40.036285
20327.343750	-40.123043
20370.410156	-40.327801
20413.476562	-40.365463
20456.542969	-40.722919
20499.609375	-40.328602
20542.675781	-40.407784
20585.742188	-40.579823
20628.808594	-40.690479
20671.875000	-40.095825
20714.941406	-40.049000
20758.007812	-39.983074
20801.074219	-40.066406
20844.140625	-40.368412
20887.207031	-40.759781
20930.273438	-40.430202
20973.339844	-40.182102
21016.406250	-39.875652
21059.472656	-39.680458
21102.539062	-40.225346
21145.605469	-40.795528
21188.671875	-40.892200
21231.738281	-40.433407
21274.804688	-40.545387
21317.871094	-40.607277
21360.937500	-41.059711
21404.003906	-41.022846
21447.070312	-40.720478
21490.136719	-40.693520
21533.203125	-40.933094
21576.269531	-40.991238
21619.335938	-40.918644
21662.402344	-41.273586
21705.468750	-41.285938
21748.535156	-41.064816
21791.601562	-41.339493
21834.667969	-41.225777
21877.734375	-41.558926
21920.800781	-41.677700
21963.867188	-42.100033
22006.933594	-41.856796
