Frequency (Hz)	Level (dB)
43.066406	-18.857594
86.132812	-13.722194
129.199219	-10.497408
172.265625	-10.675714
215.332031	-11.639380
258.398438	-11.988705
301.464844	-12.209181
344.531250	-12.684558
387.597656	-13.001589
430.664062	-13.430679
473.730469	-13.839388
516.796875	-14.571115
559.863281	-15.097204
602.929688	-15.108364
645.996094	-15.269727
689.062500	-15.832567
732.128906	-16.344107
775.195312	-17.128254
818.261719	-17.683025
861.328125	-18.111794
904.394531	-18.433622
947.460938	-18.519642
990.527344	-18.665274
1033.593750	-19.051115
1076.660156	-19.408106
1119.726562	-19.729271
1162.792969	-19.483994
1205.859375	-20.104149
1248.925781	-20.957472
1291.992188	-21.189997
1335.058594	-20.849476
1378.125000	-21.149141
1421.191406	-21.492990
1464.257812	-21.857464
1507.324219	-22.096090
1550.390625	-22.249439
1593.457031	-22.541445
1636.523438	-22.908329
1679.589844	-22.879078
1722.656250	-22.766615
1765.722656	-23.219828
1808.789062	-23.500340
1851.855469	-23.675709
1894.921875	-24.450968
1937.988281	-24.427668
1981.054688	-23.962236
2024.121094	-23.975550
2067.187500	-24.198261
2110.253906	-24.689154
2153.320312	-24.867588
2196.386719	-24.855066
2239.453125	-24.815365
2282.519531	-24.868204
2325.585938	-24.774385
2368.652344	-24.677082
2411.718750	-25.358559
2454.785156	-25.973463
2497.851562	-25.700571
2540.917969	-25.258696
2583.984375	-25.749201
2627.050781	-26.103069
2670.117188	-25.951910
2713.183594	-25.809969
2756.250000	-26.113102
2799.316406	-26.208788
2842.382812	-26.493965
2885.449219	-26.677639
2928.515625	-26.351196
2971.582031	-26.965511
3014.648438	-27.146036
3057.714844	-26.959803
3100.781250	-26.928255
3143.847656	-26.594034
3186.914062	-26.898849
3229.980469	-27.222517
3273.046875	-27.143299
3316.113281	-26.952072
3359.179688	-27.632923
3402.246094	-27.739130
3445.312500	-27.730978
3488.378906	-27.729561
3531.445312	-27.417824
3574.511719	-27.688828
3617.578125	-27.987391
3660.644531	-27.516336
3703.710938	-27.318180
3746.777344	-27.845161
3789.843750	-27.731741
3832.910156	-28.171934
3875.976562	-28.130060
3919.042969	-28.358618
3962.109375	-28.504787
4005.175781	-28.471973
4048.242188	-28.910458
4091.308594	-28.941858
4134.375000	-28.521158
4177.441406	-28.587780
4220.507812	-28.799971
4263.574219	-28.932791
4306.640625	-29.185156
4349.707031	-29.049820
4392.773438	-29.097820
4435.839844	-29.270916
4478.906250	-28.997774
4521.972656	-28.949013
4565.039062	-29.101768
4608.105469	-29.388557
4651.171875	-29.780249
4694.238281	-29.806665
4737.304688	-29.246130
4780.371094	-28.978310
4823.437500	-29.491520
4866.503906	-29.552542
4909.570312	-29.685429
4952.636719	-29.927748
4995.703125	-29.884678
5038.769531	-30.035231
5081.835938	-29.672426
5124.902344	-29.998377
5167.968750	-29.792297
5211.035156	-29.926956
5254.101562	-30.300018
5297.167969	-30.338461
5340.234375	-30.169487
5383.300781	-30.355856
5426.367188	-30.333801
5469.433594	-30.272949
5512.500000	-30.488373
5555.566406	-30.534513
5598.632812	-30.415199
5641.699219	-30.396355
5684.765625	-29.985746
5727.832031	-30.326620
5770.898438	-30.630838
5813.964844	-30.811872
5857.031250	-30.625320
5900.097656	-30.537426
5943.164062	-30.402363
5986.230469	-30.872128
6029.296875	-30.793287
6072.363281	-31.021757
6115.429688	-31.125685
6158.496094	-31.054115
6201.562500	-31.455158
6244.628906	-31.163677
6287.695312	-31.092518
6330.761719	-31.246607
6373.828125	-31.199306
6416.894531	-30.772600
6459.960938	-30.804224
6503.027344	-31.073271
6546.093750	-31.449957
6589.160156	-31.778425
6632.226562	-32.009163
6675.292969	-31.615786
6718.359375	-31.419113
6761.425781	-31.451170
6804.492188	-31.511450
6847.558594	-31.273409
6890.625000	-31.711601
6933.691406	-31.473801
6976.757812	-31.548635
7019.824219	-31.681232
7062.890625	-31.946703
7105.957031	-32.393124
7149.023438	-32.422829
7192.089844	-32.405689
7235.156250	-31.956881
7278.222656	-31.688799
7321.289062	-31.851910
7364.355469	-31.925011
7407.421875	-32.308849
7450.488281	-32.337952
7493.554688	-32.296783
7536.621094	-32.227154
7579.687500	-32.508121
7622.753906	-32.670837
7665.820312	-32.970196
7708.886719	-33.050560
7751.953125	-32.313095
7795.019531	-32.311737
7838.085938	-32.339630
7881.152344	-32.835461
7924.218750	-32.885513
7967.285156	-32.437122
8010.351562	-32.679668
8053.417969	-32.578121
8096.484375	-32.721497
8139.550781	-32.895248
8182.617188	-32.741402
8225.683594	-32.795715
8268.750000	-33.142963
8311.816406	-33.055176
8354.882812	-32.790527
8397.949219	-33.000496
8441.015625	-33.265568
8484.082031	-33.372513
8527.148438	-33.533928
8570.214844	-33.259819
8613.281250	-33.135204
8656.347656	-33.646336
8699.414062	-33.501957
8742.480469	-33.356316
8785.546875	-32.801701
8828.613281	-33.047398
8871.679688	-33.468102
8914.746094	-33.544662
8957.812500	-33.626442
9000.878906	-33.894005
9043.945312	-33.729359
9087.011719	-33.573109
9130.078125	-33.542641
9173.144531	-33.629410
9216.210938	-33.829155
9259.277344	-34.203365
9302.343750	-33.837799
9345.410156	-33.786572
9388.476562	-34.031837
9431.542969	-33.734169
9474.609375	-33.463501
9517.675781	-33.601643
9560.742188	-34.127926
9603.808594	-34.209934
9646.875000	-34.462322
9689.941406	-34.460052
9733.007812	-34.399292
9776.074219	-34.407009
9819.140625	-34.594982
9862.207031	-33.995922
9905.273438	-33.859299
9948.339844	-33.957573
9991.406250	-34.453548
10034.472656	-34.045040
10077.539062	-33.572998
10120.605469	-34.030006
10163.671875	-34.292229
10206.738281	-34.111473
10249.804688	-34.455357
10292.871094	-34.415943
10335.937500	-34.913857
10379.003906	-34.826859
10422.070312	-34.516876
10465.136719	-34.209717
10508.203125	-34.086418
10551.269531	-34.537403
10594.335938	-34.491421
10637.402344	-34.697281
10680.468750	-34.675682
10723.535156	-34.572224
10766.601562	-35.217220
10809.667969	-35.114185
10852.734375	-34.901691
10895.800781	-34.980305
10938.867188	-34.988640
10981.933594	-34.601456
11025.000000	-34.550785
11068.066406	-34.886478
11111.132812	-34.800198
11154.199219	-34.999378
11197.265625	-35.452339
11240.332031	-35.307705
11283.398438	-34.892315
11326.464844	-34.936958
11369.531250	-35.038754
11412.597656	-35.247860
11455.664062	-35.495834
11498.730469	-35.232323
11541.796875	-34.993988
11584.863281	-35.309635
11627.929688	-35.422466
11670.996094	-35.639954
11714.062500	-35.118576
11757.128906	-34.994072
11800.195312	-35.265511
11843.261719	-35.612907
11886.328125	-35.882515
11929.394531	-35.918983
11972.460938	-35.855526
12015.527344	-35.834221
12058.593750	-35.823589
12101.660156	-35.574398
12144.726562	-35.634949
12187.792969	-35.817978
12230.859375	-35.544357
12273.925781	-35.370625
12316.992188	-35.663551
12360.058594	-35.545681
12403.125000	-35.637470
12446.191406	-35.873604
12489.257812	-35.934845
12532.324219	-36.234711
12575.390625	-36.043201
12618.457031	-36.046349
12661.523438	-36.421360
12704.589844	-36.185242
12747.656250	-36.182510
12790.722656	-36.121735
12833.789062	-36.140339
12876.855469	-36.103085
12919.921875	-36.137196
12962.988281	-36.452137
13006.054688	-36.631580
13049.121094	-36.892323
13092.187500	-36.883507
13135.253906	-36.634708
13178.320312	-36.665131
13221.386719	-36.527550
13264.453125	-36.759914
13307.519531	-37.247528
13350.585938	-36.870159
13393.652344	-36.237343
13436.718750	-36.321003
13479.785156	-36.351761
13522.851562	-36.492111
13565.917969	-36.583817
13608.984375	-36.956486
13652.050781	-36.818897
13695.117188	-37.158600
13738.183594	-37.188202
13781.250000	-36.972176
13824.316406	-36.872147
13867.382812	-36.875999
13910.449219	-37.252823
13953.515625	-37.125340
13996.582031	-37.240791
14039.648438	-36.761360
14082.714844	-36.638908
14125.781250	-37.158142
14168.847656	-37.042538
14211.914062	-36.952900
14254.980469	-36.814777
14298.046875	-36.895809
14341.113281	-37.302673
14384.179688	-37.042831
14427.246094	-37.206059
14470.312500	-37.139568
14513.378906	-37.124218
14556.445312	-37.148434
14599.511719	-37.012688
14642.578125	-37.453011
14685.644531	-37.281227
14728.710938	-37.550499
14771.777344	-37.840080
14814.843750	-37.470413
14857.910156	-37.620762
14900.976562	-37.475346
14944.042969	-37.387825
14987.109375	-37.837997
15030.175781	-37.757553
15073.242188	-37.942581
15116.308594	-37.700325
15159.375000	-37.269539
15202.441406	-37.524345
15245.507812	-37.686718
15288.574219	-37.641201
15331.640625	-37.748894
15374.707031	-37.708874
15417.773438	-37.630558
15460.839844	-37.754353
15503.906250	-37.678471
15546.972656	-37.505730
15590.039062	-37.755432
15633.105469	-37.828537
15676.171875	-37.842945
15719.238281	-38.347702
15762.304688	-38.387218
15805.371094	-38.032017
15848.437500	-38.010784
15891.503906	-37.908337
15934.570312	-37.945274
15977.636719	-38.125648
16020.703125	-38.434780
16063.769531	-38.639641
16106.835938	-38.625343
16149.902344	-38.302429
16192.968750	-38.380081
16236.035156	-38.849033
16279.101562	-38.515118
16322.167969	-38.030674
16365.234375	-37.914135
16408.300781	-38.164036
16451.367188	-38.681908
16494.433594	-38.515480
16537.500000	-38.581551
16580.566406	-38.386700
16623.632812	-38.642952
16666.699219	-38.692719
16709.765625	-38.932320
16752.832031	-38.986725
16795.898438	-38.883774
16838.964844	-38.680805
16882.031250	-38.722008
16925.097656	-39.124100
16968.164062	-38.797779
17011.230469	-38.748512
17054.296875	-38.677197
17097.363281	-39.005360
17140.429688	-38.786102
17183.496094	-38.719059
17226.562500	-38.440678
17269.628906	-38.684299
17312.695312	-38.934196
17355.761719	-38.999683
17398.828125	-38.826542
17441.894531	-39.038052
17484.960938	-39.256107
17528.027344	-39.174980
17571.093750	-38.897804
17614.160156	-38.775303
17657.226562	-38.859539
17700.292969	-39.549484
17743.359375	-39.829151
17786.425781	-39.720142
17829.492188	-39.568474
17872.558594	-39.634315
17915.625000	-39.744583
17958.691406	-39.503757
18001.757812	-39.171280
18044.824219	-39.480274
18087.890625	-39.398331
18130.957031	-39.298706
18174.023438	-39.624680
18217.089844	-39.350868
18260.156250	-39.365421
18303.222656	-39.794540
18346.289062	-40.200554
18389.355469	-40.410927
18432.421875	-40.003860
18475.488281	-39.805008
18518.554688	-40.132538
18561.621094	-40.157440
18604.687500	-39.970253
18647.753906	-39.673359
18690.820312	-39.932716
18733.886719	-40.167088
18776.953125	-39.993462
18820.019531	-40.521732
18863.085938	-39.991348
18906.152344	-40.014927
18949.218750	-39.934250
18992.285156	-39.997654
19035.351562	-39.755684
19078.417969	-39.891388
19121.484375	-40.287910
19164.550781	-40.507854
19207.617188	-40.763714
19250.683594	-40.462341
19293.750000	-39.815918
19336.816406	-40.187778
19379.882812	-40.905277
19422.949219	-41.139652
19466.015625	-40.554039
19509.082031	-40.424618
19552.148438	-40.441906
19595.214844	-40.723347
19638.281250	-40.516544
19681.347656	-40.455456
19724.414062	-40.745228
19767.480469	-41.154778
19810.546875	-41.168861
19853.613281	-40.881645
19896.679688	-40.704300
19939.746094	-40.447796
19982.812500	-40.526871
20025.878906	-40.464554
20068.945312	-40.984291
20112.011719	-41.328335
20155.078125	-41.200176
20198.144531	-41.231487
20241.210938	-40.808369
20284.277344	-40.751072
20327.343750	-41.207230
20370.410156	-41.408482
20413.476562	-41.332642
20456.542969	-41.055008
20499.609375	-40.923813
20542.675781	-41.290642
20585.742188	-41.494118
20628.808594	-41.543018
20671.875000	-41.156578
20714.941406	-41.024124
20758.007812	-40.952805
20801.074219	-41.183128
20844.140625	-41.597889
20887.207031	-41.522835
20930.273438	-41.660614
20973.339844	-41.619987
21016.406250	-41.948521
21059.472656	-41.537426
21102.539062	-41.859001
21145.605469	-42.237244
21188.671875	-41.691261
21231.738281	-41.266781
21274.804688	-41.865631
21317.871094	-42.294647
21360.937500	-42.137779
21404.003906	-41.852695
21447.070312	-41.979198
21490.136719	-42.259933
21533.203125	-42.250492
21576.269531	-42.442059
21619.335938	-42.355831
21662.402344	-42.355297
21705.468750	-42.415073
21748.535156	-42.492622
21791.601562	-42.441040
21834.667969	-42.495186
21877.734375	-42.515816
21920.800781	-42.775711
21963.867188	-42.644749
22006.933594	-42.210545
