Frequency (Hz)	Level (dB)
43.066406	-34.245346
86.132812	-27.235222
129.199219	-23.234541
172.265625	-22.664730
215.332031	-23.286106
258.398438	-23.021023
301.464844	-23.074783
344.531250	-23.029840
387.597656	-23.085596
430.664062	-23.226871
473.730469	-23.240826
516.796875	-23.102373
559.863281	-23.710255
602.929688	-23.301582
645.996094	-23.762487
689.062500	-24.118692
732.128906	-24.092710
775.195312	-24.631304
818.261719	-24.798950
861.328125	-25.151104
904.394531	-25.203861
947.460938	-25.329296
990.527344	-25.479345
1033.593750	-25.447374
1076.660156	-25.382637
1119.726562	-25.532055
1162.792969	-26.193047
1205.859375	-26.206833
1248.925781	-26.369324
1291.992188	-25.823246
1335.058594	-26.407307
1378.125000	-26.720160
1421.191406	-26.931425
1464.257812	-27.481394
1507.324219	-27.332960
1550.390625	-27.253838
1593.457031	-28.077751
1636.523438	-28.300287
1679.589844	-27.914007
1722.656250	-28.071756
1765.722656	-27.713129
1808.789062	-28.138262
1851.855469	-28.364571
1894.921875	-28.362911
1937.988281	-28.615026
1981.054688	-29.400501
2024.121094	-29.294432
2067.187500	-28.761797
2110.253906	-28.560846
2153.320312	-28.936939
2196.386719	-29.095762
2239.453125	-29.135084
2282.519531	-28.968658
2325.585938	-28.569416
2368.652344	-29.003721
2411.718750	-29.678352
2454.785156	-29.602652
2497.851562	-29.694691
2540.917969	-29.380665
2583.984375	-29.533775
2627.050781	-30.023823
2670.117188	-30.340208
2713.183594	-29.911858
2756.250000	-30.080202
2799.316406	-30.327524
2842.382812	-30.282726
2885.449219	-29.956205
2928.515625	-30.145033
2971.582031	-30.610271
3014.648438	-31.129055
3057.714844	-31.205912
3100.781250	-30.756706
3143.847656	-30.416056
3186.914062	-30.753292
3229.980469	-31.176329
3273.046875	-31.590561
3316.113281	-31.136312
3359.179688	-31.045313
3402.246094	-31.455572
3445.312500	-31.392374
3488.378906	-31.957054
3531.445312	-31.886547
3574.511719	-31.931372
3617.578125	-31.484285
3660.644531	-31.370310
3703.710938	-31.174208
3746.777344	-31.860649
3789.843750	-32.119740
3832.910156	-31.607380
3875.976562	-31.725050
3919.042969	-32.045387
3962.109375	-32.696819
4005.175781	-32.148232
4048.242188	-31.919630
4091.308594	-32.175869
4134.375000	-31.961180
4177.441406	-32.326874
4220.507812	-32.644409
4263.574219	-32.421284
4306.640625	-32.495796
4349.707031	-32.391811
4392.773438	-32.055595
4435.839844	-32.330597
4478.906250	-32.640205
4521.972656	-32.936481
4565.039062	-33.156399
4608.105469	-32.937759
4651.171875	-33.059517
4694.238281	-32.803394
4737.304688	-33.033760
4780.371094	-32.855160
4823.437500	-32.753548
4866.503906	-33.027416
4909.570312	-33.711105
4952.636719	-33.576656
4995.703125	-33.233368
5038.769531	-33.564865
5081.835938	-33.464916
5124.902344	-33.606232
5167.968750	-33.139568
5211.035156	-32.833042
5254.101562	-33.367641
5297.167969	-33.572655
5340.234375	-33.360970
5383.300781	-33.550049
5426.367188	-34.114708
5469.433594	-33.997047
5512.500000	-34.171219
5555.566406	-34.130840
5598.632812	-33.871246
5641.699219	-33.842930
5684.765625	-33.959953
5727.832031	-33.981831
5770.898438	-34.543648
5813.964844	-33.916012
5857.031250	-33.703564
5900.097656	-34.221962
5943.164062	-34.115643
5986.230469	-34.115356
6029.296875	-34.473320
6072.363281	-34.553112
6115.429688	-34.072968
6158.496094	-34.234600
6201.562500	-34.542027
6244.628906	-34.495186
6287.695312	-34.521687
6330.761719	-34.336578
6373.828125	-34.340324
6416.894531	-34.217041
6459.960938	-34.009422
6503.027344	-34.331985
6546.093750	-34.927662
6589.160156	-34.824940
6632.226562	-35.105354
6675.292969	-35.254883
6718.359375	-35.305794
6761.425781	-35.334778
6804.492188	-35.170254
6847.558594	-35.150871
6890.625000	-35.001556
6933.691406	-34.623528
6976.757812	-34.436424
7019.824219	-34.829597
7062.890625	-34.758171
7105.957031	-35.194004
7149.023438	-35.403294
7192.089844	-34.921673
7235.156250	-35.318665
7278.222656	-35.572601
7321.289062	-35.332104
7364.355469	-35.022728
7407.421875	-35.341839
7450.488281	-35.511658
7493.554688	-36.066360
7536.621094	-36.398983
7579.687500	-35.934528
7622.753906	-36.193127
7665.820312	-35.701683
7708.886719	-35.618252
7751.953125	-35.688774
7795.019531	-35.692711
7838.085938	-35.713913
7881.152344	-35.748219
7924.218750	-35.718082
7967.285156	-36.497719
8010.351562	-36.699135
8053.417969	-36.637981
8096.484375	-35.850052
8139.550781	-35.727093
8182.617188	-35.469025
8225.683594	-35.744267
8268.750000	-35.759747
8311.816406	-35.712112
8354.882812	-35.727245
8397.949219	-35.487061
8441.015625	-36.389378
8484.082031	-36.757919
8527.148438	-36.690952
8570.214844	-36.544998
8613.281250	-36.003841
8656.347656	-35.800320
8699.414062	-36.104256
8742.480469	-36.640427
8785.546875	-36.062035
8828.613281	-36.057125
8871.679688	-36.927876
8914.746094	-36.935524
8957.812500	-36.115086
9000.878906	-36.609978
9043.945312	-36.477661
9087.011719	-36.274242
9130.078125	-36.564308
9173.144531	-36.318031
9216.210938	-36.779526
9259.277344	-36.469593
9302.343750	-36.559132
9345.410156	-37.219536
9388.476562	-36.947254
9431.542969	-36.594948
9474.609375	-36.412292
9517.675781	-36.525375
9560.742188	-36.619164
9603.808594	-37.062000
9646.875000	-37.537952
9689.941406	-36.727879
9733.007812	-36.416119
9776.074219	-36.618752
9819.140625	-36.960236
9862.207031	-36.762875
9905.273438	-36.986485
9948.339844	-37.029602
9991.406250	-37.125237
10034.472656	-37.229656
10077.539062	-36.651363
10120.605469	-36.570896
10163.671875	-37.146938
10206.738281	-37.409092
10249.804688	-37.591030
10292.871094	-37.008484
10335.937500	-37.148151
10379.003906	-37.170074
10422.070312	-37.323082
10465.136719	-37.109158
10508.203125	-37.573845
10551.269531	-37.700432
10594.335938	-37.401756
10637.402344	-37.263531
10680.468750	-37.831341
10723.535156	-37.351372
10766.601562	-37.492577
10809.667969	-37.336979
10852.734375	-36.997398
10895.800781	-37.384289
10938.867188	-37.077885
10981.933594	-37.305897
11025.000000	-37.460129
11068.066406	-37.918339
11111.132812	-37.983208
11154.199219	-38.070045
11197.265625	-38.124176
11240.332031	-37.650715
11283.398438	-37.417217
11326.464844	-37.478657
11369.531250	-37.518696
11412.597656	-37.840523
11455.664062	-37.841080
11498.730469	-37.936508
11541.796875	-37.615734
11584.863281	-37.392666
11627.929688	-37.724819
11670.996094	-38.102264
11714.062500	-37.932465
11757.128906	-37.675735
11800.195312	-37.834854
11843.261719	-38.287350
11886.328125	-38.077641
11929.394531	-38.463520
11972.460938	-38.371613
12015.527344	-37.733402
12058.593750	-37.937618
12101.660156	-37.387039
12144.726562	-37.898277
12187.792969	-38.611149
12230.859375	-38.201363
12273.925781	-38.148876
12316.992188	-38.449467
12360.058594	-38.323071
12403.125000	-38.528633
12446.191406	-38.467930
12489.257812	-38.551899
12532.324219	-38.466740
12575.390625	-38.264297
12618.457031	-38.327705
12661.523438	-38.490894
12704.589844	-37.803581
12747.656250	-37.743114
12790.722656	-38.482689
12833.789062	-38.657562
12876.855469	-38.563076
12919.921875	-38.093735
12962.988281	-38.494183
13006.054688	-38.655315
13049.121094	-38.183105
13092.187500	-38.166851
13135.253906	-38.484020
13178.320312	-38.720322
13221.386719	-38.801022
13264.453125	-39.014217
13307.519531	-38.814293
13350.585938	-38.523132
13393.652344	-38.826206
13436.718750	-39.340057
13479.785156	-38.960922
13522.851562	-38.401154
13565.917969	-38.349106
13608.984375	-38.877674
13652.050781	-39.488335
13695.117188	-39.575420
13738.183594	-39.444553
13781.250000	-38.766109
13824.316406	-38.365158
13867.382812	-38.746384
13910.449219	-38.728504
13953.515625	-38.967518
13996.582031	-38.850552
14039.648438	-39.115898
14082.714844	-39.001854
14125.781250	-39.251991
14168.847656	-39.278320
14211.914062	-39.536770
14254.980469	-39.470913
14298.046875	-38.386192
14341.113281	-38.572563
14384.179688	-39.371792
14427.246094	-39.491741
14470.312500	-39.502060
14513.378906	-39.365505
14556.445312	-39.280426
14599.511719	-39.445709
14642.578125	-39.445717
14685.644531	-40.008091
14728.710938	-39.576649
14771.777344	-39.812550
14814.843750	-39.573849
14857.910156	-38.991455
14900.976562	-39.142319
14944.042969	-39.021282
14987.109375	-39.257896
15030.175781	-39.573185
15073.242188	-40.028439
15116.308594	-39.821156
15159.375000	-39.757389
15202.441406	-39.894127
15245.507812	-39.637280
15288.574219	-39.839191
15331.640625	-39.772583
15374.707031	-40.086861
15417.773438	-39.982990
15460.839844	-39.819851
15503.906250	-39.380169
15546.972656	-39.236034
15590.039062	-39.679543
15633.105469	-40.076954
15676.171875	-40.146362
15719.238281	-39.939026
15762.304688	-40.227386
15805.371094	-40.084087
15848.437500	-39.367443
15891.503906	-39.328312
15934.570312	-39.710346
15977.636719	-39.778252
16020.703125	-40.102463
16063.769531	-40.191792
16106.835938	-40.048313
16149.902344	-39.577866
16192.968750	-39.367748
16236.035156	-39.557888
16279.101562	-39.686722
16322.167969	-40.490314
16365.234375	-40.640701
16408.300781	-39.889114
16451.367188	-39.765240
16494.433594	-39.710823
16537.500000	-40.082542
16580.566406	-40.597252
16623.632812	-40.076965
16666.699219	-39.919762
16709.765625	-40.060032
16752.832031	-40.005230
16795.898438	-39.960403
16838.964844	-40.445034
16882.031250	-39.980049
16925.097656	-39.821663
16968.164062	-40.042889
17011.230469	-39.898689
17054.296875	-40.053997
17097.363281	-40.962704
17140.429688	-40.818714
17183.496094	-40.641907
17226.562500	-40.867889
17269.628906	-40.803596
17312.695312	-40.761761
17355.761719	-40.260773
17398.828125	-40.243290
17441.894531	-39.804955
17484.960938	-39.577217
17528.027344	-40.265404
17571.093750	-40.554569
17614.160156	-40.136116
17657.226562	-40.475613
17700.292969	-40.614029
17743.359375	-40.922295
17786.425781	-40.527027
17829.492188	-40.255222
17872.558594	-40.572689
17915.625000	-41.168282
17958.691406	-41.185467
18001.757812	-41.081253
18044.824219	-40.407864
18087.890625	-40.262920
18130.957031	-40.156979
18174.023438	-40.055031
18217.089844	-40.327816
18260.156250	-41.099468
18303.222656	-40.946335
18346.289062	-40.834457
18389.355469	-40.945042
18432.421875	-40.457699
18475.488281	-40.337872
18518.554688	-40.984150
18561.621094	-41.072460
18604.687500	-40.714363
18647.753906	-41.056957
18690.820312	-41.459724
18733.886719	-41.464336
18776.953125	-40.901497
18820.019531	-41.070168
18863.085938	-40.584961
18906.152344	-40.561592
18949.218750	-40.758713
18992.285156	-40.842430
19035.351562	-40.468433
19078.417969	-40.657715
19121.484375	-41.166035
19164.550781	-40.564236
19207.617188	-40.753773
19250.683594	-40.938881
19293.750000	-40.833069
19336.816406	-40.965263
19379.882812	-41.228966
19422.949219	-40.917126
19466.015625	-40.688381
19509.082031	-40.985790
19552.148438	-40.875488
19595.214844	-41.101402
19638.281250	-41.794838
19681.347656	-41.362820
19724.414062	-40.521778
19767.480469	-40.945648
19810.546875	-41.656769
19853.613281	-41.672745
19896.679688	-41.013798
19939.746094	-40.655838
19982.812500	-40.810482
20025.878906	-40.676498
20068.945312	-40.652786
20112.011719	-40.820854
20155.078125	-40.956352
20198.144531	-41.442886
20241.210938	-41.236618
20284.277344	-41.164654
20327.343750	-41.270107
20370.410156	-41.248028
20413.476562	-41.189499
20456.542969	-41.058075
20499.609375	-41.195400
20542.675781	-41.958866
20585.742188	-41.736038
20628.808594	-42.060741
20671.875000	-41.913612
20714.941406	-41.791168
20758.007812	-41.696953
20801.074219	-41.700214
20844.140625	-42.142265
20887.207031	-42.123268
20930.273438	-41.543800
20973.339844	-41.395683
21016.406250	-41.777161
21059.472656	-41.905388
21102.539062	-42.008732
21145.605469	-42.041851
21188.671875	-41.578678
21231.738281	-41.746605
21274.804688	-42.391209
21317.871094	-42.316608
21360.937500	-41.802761
21404.003906	-42.033310
21447.070312	-42.218945
21490.136719	-42.649830
21533.203125	-42.988499
21576.269531	-42.953911
21619.335938	-42.594044
21662.402344	-42.980267
21705.468750	-43.963005
21748.535156	-44.354153
21791.601562	-44.833836
21834.667969	-45.373348
21877.734375	-46.722736
21920.800781	-48.216202
21963.867188	-51.158249
22006.933594	-55.426601
