Frequency (Hz)	Level (dB)
43.066406	-17.497477
86.132812	-11.114243
129.199219	-8.824872
172.265625	-9.940629
215.332031	-11.023631
258.398438	-11.266219
301.464844	-11.263278
344.531250	-11.596926
387.597656	-12.438970
430.664062	-12.990886
473.730469	-12.956922
516.796875	-13.400250
559.863281	-13.782294
602.929688	-13.413928
645.996094	-14.045773
689.062500	-15.093721
732.128906	-14.785453
775.195312	-15.275056
818.261719	-15.627845
861.328125	-15.794798
904.394531	-16.448936
947.460938	-16.786520
990.527344	-16.920710
1033.593750	-16.771446
1076.660156	-17.119081
1119.726562	-17.555725
1162.792969	-18.403177
1205.859375	-18.433212
1248.925781	-18.400568
1291.992188	-18.870438
1335.058594	-19.578112
1378.125000	-18.921944
1421.191406	-19.354452
1464.257812	-20.306849
1507.324219	-20.052931
1550.390625	-20.649639
1593.457031	-21.077477
1636.523438	-21.126568
1679.589844	-21.079716
1722.656250	-21.696817
1765.722656	-21.407433
1808.789062	-22.024397
1851.855469	-22.750906
1894.921875	-22.648813
1937.988281	-23.086079
1981.054688	-23.661741
2024.121094	-23.382168
2067.187500	-23.325729
2110.253906	-23.777822
2153.320312	-24.018854
2196.386719	-24.258499
2239.453125	-24.369677
2282.519531	-24.060600
2325.585938	-23.856688
2368.652344	-24.536900
2411.718750	-25.301338
2454.785156	-25.336752
2497.851562	-25.495626
2540.917969	-25.614218
2583.984375	-25.815989
2627.050781	-26.273726
2670.117188	-26.322836
2713.183594	-26.373550
2756.250000	-26.611656
2799.316406	-26.899855
2842.382812	-26.669786
2885.449219	-26.553604
2928.515625	-26.940556
2971.582031	-27.266571
3014.648438	-27.653175
3057.714844	-28.151018
3100.781250	-27.673275
3143.847656	-27.841120
3186.914062	-28.050327
3229.980469	-28.093372
3273.046875	-28.458128
3316.113281	-28.626228
3359.179688	-28.954432
3402.246094	-29.290985
3445.312500	-29.087761
3488.378906	-29.581964
3531.445312	-29.954613
3574.511719	-29.749632
3617.578125	-30.020958
3660.644531	-30.056377
3703.710938	-29.894220
3746.777344	-29.952242
3789.843750	-30.664579
3832.910156	-30.614946
3875.976562	-30.816832
3919.042969	-31.415476
3962.109375	-31.566647
4005.175781	-31.167849
4048.242188	-30.997623
4091.308594	-31.405331
4134.375000	-31.349291
4177.441406	-32.060787
4220.507812	-32.037315
4263.574219	-32.021255
4306.640625	-32.201820
4349.707031	-32.557812
4392.773438	-32.317871
4435.839844	-32.395447
4478.906250	-32.771690
4521.972656	-33.296364
4565.039062	-33.427334
4608.105469	-33.011398
4651.171875	-33.244896
4694.238281	-33.130249
4737.304688	-33.530491
4780.371094	-33.225567
4823.437500	-32.970589
4866.503906	-33.396667
4909.570312	-34.074066
4952.636719	-33.976692
4995.703125	-34.207256
5038.769531	-34.066719
5081.835938	-34.441273
5124.902344	-34.777462
5167.968750	-35.015923
5211.035156	-34.989834
5254.101562	-34.945629
5297.167969	-35.012447
5340.234375	-34.960587
5383.300781	-35.209602
5426.367188	-35.457420
5469.433594	-35.591549
5512.500000	-36.255573
5555.566406	-36.514423
5598.632812	-36.101215
5641.699219	-35.835182
5684.765625	-36.185112
5727.832031	-36.082520
5770.898438	-36.909477
5813.964844	-36.653000
5857.031250	-36.604790
5900.097656	-36.579987
5943.164062	-36.222210
5986.230469	-36.327660
6029.296875	-36.975098
6072.363281	-37.520603
6115.429688	-36.820118
6158.496094	-36.934406
6201.562500	-37.785595
6244.628906	-37.736771
6287.695312	-37.744946
6330.761719	-37.524517
6373.828125	-37.545151
6416.894531	-37.914104
6459.960938	-38.072414
6503.027344	-38.195427
6546.093750	-38.494625
6589.160156	-38.508152
6632.226562	-38.802498
6675.292969	-39.072727
6718.359375	-39.241245
6761.425781	-39.192253
6804.492188	-39.583820
6847.558594	-39.322620
6890.625000	-39.238007
6933.691406	-39.087788
6976.757812	-39.087391
7019.824219	-39.242825
7062.890625	-39.192539
7105.957031	-39.582127
7149.023438	-40.221287
7192.089844	-40.383495
7235.156250	-40.366299
7278.222656	-39.876728
7321.289062	-40.153835
7364.355469	-41.219242
7407.421875	-40.850868
7450.488281	-40.377815
7493.554688	-41.527813
7536.621094	-41.716110
7579.687500	-41.060051
7622.753906	-41.169117
7665.820312	-41.489403
7708.886719	-41.904598
7751.953125	-41.729038
7795.019531	-41.423897
7838.085938	-41.595039
7881.152344	-41.525673
7924.218750	-41.565426
7967.285156	-42.286503
8010.351562	-42.692192
8053.417969	-43.022598
8096.484375	-43.006809
8139.550781	-42.565895
8182.617188	-42.158978
8225.683594	-42.499462
8268.750000	-42.868828
8311.816406	-43.007946
8354.882812	-43.320690
8397.949219	-43.644253
8441.015625	-43.482449
8484.082031	-43.871460
8527.148438	-43.846767
8570.214844	-43.676758
8613.281250	-43.683819
8656.347656	-43.982170
8699.414062	-44.427929
8742.480469	-44.762672
8785.546875	-44.114605
8828.613281	-44.024296
8871.679688	-44.352959
8914.746094	-44.874096
8957.812500	-45.037994
9000.878906	-45.211758
9043.945312	-44.828938
9087.011719	-45.192192
9130.078125	-45.524990
9173.144531	-45.242775
9216.210938	-45.304276
9259.277344	-45.131832
9302.343750	-45.740921
9345.410156	-46.201035
9388.476562	-46.097515
9431.542969	-46.034786
9474.609375	-46.220333
9517.675781	-46.143955
9560.742188	-46.297695
9603.808594	-46.641975
9646.875000	-46.951653
9689.941406	-46.987011
9733.007812	-46.792366
9776.074219	-46.965675
9819.140625	-47.659878
9862.207031	-47.615089
9905.273438	-47.862637
9948.339844	-48.207035
9991.406250	-47.945507
10034.472656	-48.550552
10077.539062	-48.054646
10120.605469	-47.977726
10163.671875	-48.363716
10206.738281	-48.832546
10249.804688	-48.901665
10292.871094	-48.332401
10335.937500	-48.597775
10379.003906	-48.840744
10422.070312	-48.797848
10465.136719	-49.720207
10508.203125	-49.697540
10551.269531	-49.050423
10594.335938	-49.149864
10637.402344	-49.627384
10680.468750	-50.316208
10723.535156	-50.429615
10766.601562	-50.284065
10809.667969	-50.342594
10852.734375	-50.394348
10895.800781	-50.626423
10938.867188	-50.786922
10981.933594	-51.087078
11025.000000	-51.648403
11068.066406	-51.585293
11111.132812	-51.885979
11154.199219	-52.081356
11197.265625	-51.875759
11240.332031	-51.821541
11283.398438	-51.677727
11326.464844	-51.789909
11369.531250	-52.070210
11412.597656	-52.423992
11455.664062	-52.573486
11498.730469	-53.062901
11541.796875	-53.207359
11584.863281	-52.911274
11627.929688	-53.257000
11670.996094	-54.358829
11714.062500	-54.285961
11757.128906	-53.428638
11800.195312	-54.004864
11843.261719	-54.124004
11886.328125	-53.976192
11929.394531	-54.335533
11972.460938	-54.736622
12015.527344	-54.650379
12058.593750	-54.950592
12101.660156	-54.624397
12144.726562	-55.017151
12187.792969	-55.554802
12230.859375	-55.661465
12273.925781	-55.645401
12316.992188	-55.675674
12360.058594	-56.129177
12403.125000	-56.262806
12446.191406	-56.363575
12489.257812	-56.743530
12532.324219	-56.872883
12575.390625	-57.358559
12618.457031	-57.399399
12661.523438	-57.370117
12704.589844	-56.803574
12747.656250	-56.998562
12790.722656	-57.737438
12833.789062	-57.945366
12876.855469	-57.646309
12919.921875	-58.091629
12962.988281	-58.731503
13006.054688	-58.581905
13049.121094	-58.555542
13092.187500	-58.480961
13135.253906	-59.229221
13178.320312	-59.841492
13221.386719	-60.608814
13264.453125	-60.923939
13307.519531	-60.606251
13350.585938	-60.229992
13393.652344	-60.086647
13436.718750	-60.673447
13479.785156	-61.240894
13522.851562	-61.178303
13565.917969	-61.068020
13608.984375	-61.118702
13652.050781	-61.038448
13695.117188	-61.135345
13738.183594	-61.052574
13781.250000	-61.677895
13824.316406	-61.512024
13867.382812	-61.236629
13910.449219	-61.401566
13953.515625	-61.541897
13996.582031	-61.732220
14039.648438	-62.360123
14082.714844	-62.205765
14125.781250	-62.466438
14168.847656	-62.425060
14211.914062	-62.065735
14254.980469	-62.070316
14298.046875	-61.414925
14341.113281	-61.247944
14384.179688	-61.351871
14427.246094	-61.396996
14470.312500	-61.876728
14513.378906	-62.217796
14556.445312	-61.811516
14599.511719	-61.825504
14642.578125	-61.754459
14685.644531	-62.080208
14728.710938	-61.499313
14771.777344	-61.422749
14814.843750	-61.322350
14857.910156	-61.306160
14900.976562	-61.307365
14944.042969	-60.819500
14987.109375	-60.585644
15030.175781	-61.560478
15073.242188	-61.329922
15116.308594	-61.020405
15159.375000	-61.287354
15202.441406	-60.778179
15245.507812	-60.320126
15288.574219	-60.983616
15331.640625	-60.946396
15374.707031	-60.633091
15417.773438	-60.732334
15460.839844	-60.124878
15503.906250	-60.092480
15546.972656	-60.382061
15590.039062	-60.351566
15633.105469	-59.948284
15676.171875	-59.518311
15719.238281	-59.106846
15762.304688	-59.386833
15805.371094	-59.651405
15848.437500	-58.862595
15891.503906	-58.656765
15934.570312	-58.979744
15977.636719	-58.860851
16020.703125	-58.912128
16063.769531	-58.507095
16106.835938	-58.270313
16149.902344	-58.201550
16192.968750	-57.676327
16236.035156	-57.515884
16279.101562	-57.249298
16322.167969	-57.915577
16365.234375	-58.074436
16408.300781	-57.599850
16451.367188	-57.189445
16494.433594	-57.362286
16537.500000	-57.556915
16580.566406	-57.140053
16623.632812	-57.160763
16666.699219	-57.088646
16709.765625	-56.895504
16752.832031	-56.309517
16795.898438	-56.451202
16838.964844	-57.034279
16882.031250	-57.029850
16925.097656	-57.363422
16968.164062	-56.986668
17011.230469	-56.860699
17054.296875	-56.818729
17097.363281	-56.905392
17140.429688	-56.520866
17183.496094	-56.628986
17226.562500	-56.894341
17269.628906	-56.520271
17312.695312	-56.624397
17355.761719	-56.202599
17398.828125	-55.895065
17441.894531	-55.926716
17484.960938	-55.967758
17528.027344	-56.204075
17571.093750	-56.039242
17614.160156	-55.915977
17657.226562	-55.862900
17700.292969	-55.495270
17743.359375	-55.505688
17786.425781	-55.982517
17829.492188	-55.501091
17872.558594	-55.529781
17915.625000	-55.703075
17958.691406	-55.518238
18001.757812	-55.899372
18044.824219	-54.931480
18087.890625	-54.890087
18130.957031	-55.053753
18174.023438	-54.803497
18217.089844	-55.064888
18260.156250	-55.483627
18303.222656	-55.240589
18346.289062	-54.988750
18389.355469	-54.914982
18432.421875	-55.103405
18475.488281	-54.806274
18518.554688	-55.006187
18561.621094	-55.100346
18604.687500	-54.599026
18647.753906	-54.539955
18690.820312	-54.611893
18733.886719	-54.999004
18776.953125	-54.479141
18820.019531	-54.409828
18863.085938	-53.973816
18906.152344	-54.210815
18949.218750	-54.920345
18992.285156	-54.657360
19035.351562	-53.956032
19078.417969	-53.887520
19121.484375	-54.386257
19164.550781	-54.030087
19207.617188	-53.784618
19250.683594	-54.173100
19293.750000	-54.197559
19336.816406	-54.004356
19379.882812	-54.040871
19422.949219	-53.716187
19466.015625	-53.640949
19509.082031	-53.849915
19552.148438	-53.940849
19595.214844	-54.128490
19638.281250	-54.279892
19681.347656	-54.166084
19724.414062	-53.471294
19767.480469	-53.666111
19810.546875	-53.981342
19853.613281	-53.756378
19896.679688	-53.883591
19939.746094	-53.437359
19982.812500	-53.221676
20025.878906	-53.647800
20068.945312	-53.210289
20112.011719	-52.561974
20155.078125	-52.721191
20198.144531	-53.223068
20241.210938	-53.539467
20284.277344	-53.638580
20327.343750	-53.374081
20370.410156	-52.767815
20413.476562	-53.091927
20456.542969	-53.122433
20499.609375	-53.156437
20542.675781	-53.314213
20585.742188	-53.439499
20628.808594	-53.539360
20671.875000	-53.927528
20714.941406	-53.287773
20758.007812	-53.065025
20801.074219	-52.706589
20844.140625	-52.815441
20887.207031	-53.440853
20930.273438	-52.627277
20973.339844	-52.571049
21016.406250	-53.033253
21059.472656	-53.214661
21102.539062	-53.370930
21145.605469	-53.233639
21188.671875	-53.139904
21231.738281	-52.620495
21274.804688	-52.804222
21317.871094	-53.449905
21360.937500	-52.867931
21404.003906	-52.457230
21447.070312	-52.678383
21490.136719	-52.765564
21533.203125	-52.778381
21576.269531	-53.263111
21619.335938	-52.978073
21662.402344	-53.511002
21705.468750	-53.367397
21748.535156	-53.324928
21791.601562	-53.437977
21834.667969	-53.890366
21877.734375	-53.999149
21920.800781	-54.005802
21963.867188	-54.377251
22006.933594	-54.969250
