Frequency (Hz)	Level (dB)
43.066406	-19.636555
86.132812	-13.757380
129.199219	-11.499231
172.265625	-12.794020
215.332031	-13.770400
258.398438	-13.837519
301.464844	-14.046967
344.531250	-14.650718
387.597656	-15.059931
430.664062	-14.919549
473.730469	-15.120488
516.796875	-15.327095
559.863281	-15.510929
602.929688	-15.286267
645.996094	-15.038635
689.062500	-15.731742
732.128906	-16.205891
775.195312	-16.753736
818.261719	-16.900385
861.328125	-17.363079
904.394531	-17.453604
947.460938	-17.544313
990.527344	-17.527861
1033.593750	-17.844219
1076.660156	-18.400257
1119.726562	-18.347939
1162.792969	-18.365826
1205.859375	-18.831070
1248.925781	-19.652740
1291.992188	-19.931999
1335.058594	-19.696606
1378.125000	-20.375469
1421.191406	-20.542522
1464.257812	-20.576303
1507.324219	-20.414024
1550.390625	-20.417536
1593.457031	-21.476316
1636.523438	-21.814037
1679.589844	-21.579998
1722.656250	-21.083462
1765.722656	-21.610622
1808.789062	-22.271492
1851.855469	-22.448483
1894.921875	-23.016878
1937.988281	-23.444361
1981.054688	-23.425774
2024.121094	-22.766363
2067.187500	-22.847216
2110.253906	-23.053202
2153.320312	-23.567654
2196.386719	-23.822254
2239.453125	-24.109901
2282.519531	-23.952362
2325.585938	-23.689224
2368.652344	-24.304205
2411.718750	-24.591463
2454.785156	-24.995199
2497.851562	-24.805447
2540.917969	-24.635252
2583.984375	-25.038689
2627.050781	-25.379410
2670.117188	-25.726572
2713.183594	-25.498400
2756.250000	-25.282663
2799.316406	-25.356825
2842.382812	-25.712248
2885.449219	-25.675421
2928.515625	-25.588882
2971.582031	-26.371208
3014.648438	-26.475527
3057.714844	-26.696379
3100.781250	-26.624838
3143.847656	-26.103399
3186.914062	-26.505711
3229.980469	-27.179636
3273.046875	-27.134041
3316.113281	-26.344873
3359.179688	-27.036758
3402.246094	-27.440779
3445.312500	-27.127842
3488.378906	-27.689808
3531.445312	-27.370380
3574.511719	-27.309896
3617.578125	-27.919489
3660.644531	-27.725842
3703.710938	-27.151249
3746.777344	-27.405560
3789.843750	-27.709429
3832.910156	-28.196590
3875.976562	-27.945391
3919.042969	-28.278433
3962.109375	-28.806416
4005.175781	-28.574862
4048.242188	-28.681976
4091.308594	-28.869305
4134.375000	-28.740009
4177.441406	-28.766804
4220.507812	-29.053860
4263.574219	-29.309149
4306.640625	-29.222055
4349.707031	-29.105646
4392.773438	-29.012438
4435.839844	-29.304035
4478.906250	-29.305426
4521.972656	-29.361177
4565.039062	-29.161245
4608.105469	-29.432983
4651.171875	-29.885021
4694.238281	-29.831184
4737.304688	-29.598572
4780.371094	-29.601387
4823.437500	-29.702518
4866.503906	-30.312122
4909.570312	-30.265162
4952.636719	-29.929417
4995.703125	-29.678452
5038.769531	-30.139074
5081.835938	-30.223488
5124.902344	-30.333664
5167.968750	-29.911522
5211.035156	-29.836971
5254.101562	-30.618277
5297.167969	-31.087795
5340.234375	-30.716484
5383.300781	-30.885530
5426.367188	-30.815800
5469.433594	-30.992306
5512.500000	-31.440037
5555.566406	-31.094212
5598.632812	-30.717058
5641.699219	-31.035275
5684.765625	-31.051746
5727.832031	-31.296766
5770.898438	-31.416058
5813.964844	-31.262619
5857.031250	-31.231426
5900.097656	-31.013823
5943.164062	-31.254923
5986.230469	-31.809326
6029.296875	-31.832644
6072.363281	-31.884003
6115.429688	-31.862320
6158.496094	-31.710941
6201.562500	-31.946028
6244.628906	-31.443886
6287.695312	-31.623053
6330.761719	-31.652714
6373.828125	-31.378210
6416.894531	-31.232058
6459.960938	-31.156570
6503.027344	-31.623800
6546.093750	-32.287952
6589.160156	-32.720642
6632.226562	-32.723873
6675.292969	-32.554359
6718.359375	-32.396030
6761.425781	-32.805706
6804.492188	-32.461758
6847.558594	-31.905735
6890.625000	-32.399441
6933.691406	-32.261086
6976.757812	-32.432896
7019.824219	-32.796417
7062.890625	-32.865707
7105.957031	-33.258953
7149.023438	-33.067600
7192.089844	-32.941799
7235.156250	-33.053219
7278.222656	-32.679810
7321.289062	-32.823956
7364.355469	-32.702824
7407.421875	-33.198460
7450.488281	-32.883820
7493.554688	-33.126213
7536.621094	-33.338314
7579.687500	-33.629967
7622.753906	-33.579350
7665.820312	-33.361866
7708.886719	-32.909985
7751.953125	-32.559464
7795.019531	-32.757393
7838.085938	-32.985653
7881.152344	-33.222858
7924.218750	-33.027702
7967.285156	-32.941006
8010.351562	-33.535637
8053.417969	-33.345829
8096.484375	-33.525661
8139.550781	-33.413929
8182.617188	-33.481026
8225.683594	-33.714497
8268.750000	-33.807384
8311.816406	-33.463375
8354.882812	-33.330219
8397.949219	-33.677845
8441.015625	-33.886963
8484.082031	-33.898026
8527.148438	-34.242897
8570.214844	-34.261505
8613.281250	-33.565636
8656.347656	-33.662334
8699.414062	-34.267399
8742.480469	-34.309326
8785.546875	-33.183098
8828.613281	-33.036625
8871.679688	-33.898182
8914.746094	-34.332184
8957.812500	-34.156193
9000.878906	-34.218826
9043.945312	-34.432102
9087.011719	-34.063137
9130.078125	-33.979053
9173.144531	-33.864170
9216.210938	-34.545925
9259.277344	-34.249775
9302.343750	-33.803432
9345.410156	-34.313969
9388.476562	-34.778187
9431.542969	-34.355389
9474.609375	-33.660809
9517.675781	-33.577499
9560.742188	-34.318256
9603.808594	-34.953259
9646.875000	-35.352379
9689.941406	-34.880203
9733.007812	-34.271137
9776.074219	-34.687351
9819.140625	-34.560715
9862.207031	-34.001385
9905.273438	-33.958946
9948.339844	-34.287209
9991.406250	-34.883087
10034.472656	-34.427235
10077.539062	-33.896526
10120.605469	-33.848827
10163.671875	-34.301750
10206.738281	-34.804504
10249.804688	-35.006905
10292.871094	-34.723934
10335.937500	-35.245392
10379.003906	-35.434536
10422.070312	-34.843170
10465.136719	-34.722301
10508.203125	-34.458553
10551.269531	-34.906517
10594.335938	-35.178429
10637.402344	-35.195091
10680.468750	-35.067665
10723.535156	-35.197323
10766.601562	-35.463303
10809.667969	-35.051151
10852.734375	-34.878807
10895.800781	-34.784958
10938.867188	-35.083435
10981.933594	-34.922028
11025.000000	-35.465176
11068.066406	-35.297161
11111.132812	-34.955528
11154.199219	-35.051453
11197.265625	-35.227558
11240.332031	-35.298927
11283.398438	-35.470295
11326.464844	-35.696781
11369.531250	-35.599983
11412.597656	-35.518497
11455.664062	-35.537659
11498.730469	-35.716785
11541.796875	-35.636589
11584.863281	-35.553722
11627.929688	-35.789394
11670.996094	-35.541454
11714.062500	-35.217491
11757.128906	-35.110752
11800.195312	-35.230267
11843.261719	-35.403278
11886.328125	-35.509708
11929.394531	-35.899029
11972.460938	-36.145111
12015.527344	-35.698456
12058.593750	-35.647556
12101.660156	-35.649559
12144.726562	-35.592888
12187.792969	-35.948914
12230.859375	-35.763641
12273.925781	-35.922733
12316.992188	-35.812294
12360.058594	-35.675133
12403.125000	-35.859016
12446.191406	-35.648907
12489.257812	-36.001118
12532.324219	-36.229881
12575.390625	-36.236061
12618.457031	-36.097858
12661.523438	-36.110783
12704.589844	-35.923798
12747.656250	-35.837090
12790.722656	-35.927216
12833.789062	-36.413811
12876.855469	-36.292686
12919.921875	-36.280628
12962.988281	-36.573246
13006.054688	-37.174625
13049.121094	-37.421879
13092.187500	-37.313751
13135.253906	-36.626373
13178.320312	-36.535404
13221.386719	-36.350342
13264.453125	-36.512798
13307.519531	-36.610592
13350.585938	-36.258091
13393.652344	-36.124660
13436.718750	-36.301434
13479.785156	-36.433556
13522.851562	-36.587284
13565.917969	-36.655338
13608.984375	-36.931713
13652.050781	-36.806511
13695.117188	-36.892117
13738.183594	-36.946766
13781.250000	-36.528671
13824.316406	-36.363419
13867.382812	-37.141823
13910.449219	-37.405209
13953.515625	-36.698246
13996.582031	-36.931236
14039.648438	-36.940186
14082.714844	-37.019489
14125.781250	-37.038280
14168.847656	-36.690762
14211.914062	-36.799088
14254.980469	-36.766533
14298.046875	-36.469097
14341.113281	-37.022739
14384.179688	-36.674763
14427.246094	-36.954815
14470.312500	-36.734245
14513.378906	-36.267166
14556.445312	-36.402172
14599.511719	-36.229172
14642.578125	-37.174179
14685.644531	-37.212761
14728.710938	-37.220440
14771.777344	-37.616722
14814.843750	-37.220909
14857.910156	-37.021332
14900.976562	-37.141609
14944.042969	-36.703735
14987.109375	-37.481213
15030.175781	-37.697502
15073.242188	-37.932487
15116.308594	-37.295979
15159.375000	-37.093853
15202.441406	-37.117321
15245.507812	-37.303699
15288.574219	-37.379234
15331.640625	-37.284145
15374.707031	-37.306675
15417.773438	-37.278137
15460.839844	-37.821743
15503.906250	-37.414917
15546.972656	-37.314823
15590.039062	-37.453533
15633.105469	-37.637932
15676.171875	-37.930107
15719.238281	-37.998394
15762.304688	-38.271149
15805.371094	-37.799900
15848.437500	-37.886890
15891.503906	-37.680698
15934.570312	-37.582996
15977.636719	-37.585316
16020.703125	-37.615299
16063.769531	-37.653133
16106.835938	-38.085007
16149.902344	-38.156940
16192.968750	-38.045666
16236.035156	-38.205956
16279.101562	-38.235851
16322.167969	-37.845840
16365.234375	-37.254528
16408.300781	-37.208588
16451.367188	-37.896954
16494.433594	-37.839897
16537.500000	-38.054287
16580.566406	-37.879791
16623.632812	-37.793907
16666.699219	-37.906601
16709.765625	-38.313652
16752.832031	-38.568203
16795.898438	-37.858208
16838.964844	-37.060829
16882.031250	-37.391056
16925.097656	-38.348431
16968.164062	-37.968540
17011.230469	-37.693291
17054.296875	-37.676685
17097.363281	-38.297245
17140.429688	-38.339783
17183.496094	-38.161209
17226.562500	-37.990387
17269.628906	-38.280678
17312.695312	-38.183716
17355.761719	-38.062233
17398.828125	-38.012436
17441.894531	-38.033810
17484.960938	-38.343517
17528.027344	-37.753300
17571.093750	-37.892601
17614.160156	-37.488003
17657.226562	-37.948597
17700.292969	-38.780109
17743.359375	-38.901569
17786.425781	-38.906807
17829.492188	-38.738804
17872.558594	-38.705097
17915.625000	-38.852253
17958.691406	-39.091488
18001.757812	-38.402737
18044.824219	-38.544521
18087.890625	-38.474300
18130.957031	-38.294876
18174.023438	-39.224785
18217.089844	-38.680950
18260.156250	-38.243923
18303.222656	-38.707279
18346.289062	-39.097099
18389.355469	-39.116280
18432.421875	-38.994549
18475.488281	-39.084515
18518.554688	-39.401321
18561.621094	-38.935436
18604.687500	-38.648529
18647.753906	-38.563511
18690.820312	-39.048981
18733.886719	-39.201889
18776.953125	-38.832607
18820.019531	-39.068871
18863.085938	-38.500225
18906.152344	-38.972378
18949.218750	-39.036190
18992.285156	-39.051064
19035.351562	-39.744049
19078.417969	-39.775806
19121.484375	-39.501816
19164.550781	-39.203472
19207.617188	-38.944435
19250.683594	-38.742825
19293.750000	-38.797195
19336.816406	-38.747200
19379.882812	-39.730423
19422.949219	-39.881561
19466.015625	-39.313206
19509.082031	-39.097870
19552.148438	-39.465958
19595.214844	-39.963402
19638.281250	-39.752827
19681.347656	-39.396988
19724.414062	-39.153492
19767.480469	-39.526749
19810.546875	-39.792873
19853.613281	-40.032520
19896.679688	-40.094673
19939.746094	-39.041119
19982.812500	-38.952274
20025.878906	-39.385456
20068.945312	-40.050430
20112.011719	-39.512024
20155.078125	-39.713966
20198.144531	-40.188766
20241.210938	-40.034897
20284.277344	-39.119576
20327.343750	-39.572269
20370.410156	-39.488476
20413.476562	-39.629120
20456.542969	-39.655670
20499.609375	-39.258907
20542.675781	-40.064442
20585.742188	-40.221905
20628.808594	-40.182400
20671.875000	-40.069515
20714.941406	-39.778404
20758.007812	-39.463379
20801.074219	-39.740536
20844.140625	-39.871613
20887.207031	-39.690372
20930.273438	-39.818172
20973.339844	-40.147507
21016.406250	-40.755962
21059.472656	-40.108074
21102.539062	-40.233124
21145.605469	-40.851402
21188.671875	-40.236286
21231.738281	-39.881733
21274.804688	-40.842663
21317.871094	-41.113670
21360.937500	-40.217773
21404.003906	-39.659683
21447.070312	-39.595688
21490.136719	-40.531837
21533.203125	-40.699982
21576.269531	-40.733913
21619.335938	-40.524376
21662.402344	-40.931496
21705.468750	-41.553497
21748.535156	-41.208679
21791.601562	-41.292461
21834.667969	-41.424908
21877.734375	-42.014851
21920.800781	-43.299442
21963.867188	-44.275478
22006.933594	-44.372211
