Frequency (Hz)	Level (dB)
43.066406	-29.371794
86.132812	-22.243189
129.199219	-19.542467
172.265625	-20.564232
215.332031	-21.444193
258.398438	-21.783987
301.464844	-21.937647
344.531250	-22.196617
387.597656	-22.286791
430.664062	-22.400427
473.730469	-22.558044
516.796875	-22.727070
559.863281	-22.837778
602.929688	-22.333427
645.996094	-22.544529
689.062500	-22.869949
732.128906	-22.857170
775.195312	-23.374233
818.261719	-23.277403
861.328125	-23.543312
904.394531	-24.068634
947.460938	-24.202803
990.527344	-24.049425
1033.593750	-24.186726
1076.660156	-24.371140
1119.726562	-24.544323
1162.792969	-25.168928
1205.859375	-24.791084
1248.925781	-24.727961
1291.992188	-24.977325
1335.058594	-25.366604
1378.125000	-24.877485
1421.191406	-25.613560
1464.257812	-26.096821
1507.324219	-25.812206
1550.390625	-25.789207
1593.457031	-26.026720
1636.523438	-26.055588
1679.589844	-26.114996
1722.656250	-26.068546
1765.722656	-26.316996
1808.789062	-26.467033
1851.855469	-26.523071
1894.921875	-27.168249
1937.988281	-27.121145
1981.054688	-27.210314
2024.121094	-27.366554
2067.187500	-27.159548
2110.253906	-27.562401
2153.320312	-27.522078
2196.386719	-27.475296
2239.453125	-27.377020
2282.519531	-27.457491
2325.585938	-27.602182
2368.652344	-27.770861
2411.718750	-28.001976
2454.785156	-27.891096
2497.851562	-28.232607
2540.917969	-28.449707
2583.984375	-28.313383
2627.050781	-28.492432
2670.117188	-28.753252
2713.183594	-28.564264
2756.250000	-28.821278
2799.316406	-28.660425
2842.382812	-28.630644
2885.449219	-28.660252
2928.515625	-28.713718
2971.582031	-28.733828
3014.648438	-29.066505
3057.714844	-29.053650
3100.781250	-29.215752
3143.847656	-29.113092
3186.914062	-28.876097
3229.980469	-28.726774
3273.046875	-29.037207
3316.113281	-29.132364
3359.179688	-29.197235
3402.246094	-29.338531
3445.312500	-29.447636
3488.378906	-29.945423
3531.445312	-29.943806
3574.511719	-29.824516
3617.578125	-30.132097
3660.644531	-29.675386
3703.710938	-29.699532
3746.777344	-29.945097
3789.843750	-30.370749
3832.910156	-30.081621
3875.976562	-29.713511
3919.042969	-29.921423
3962.109375	-29.841030
4005.175781	-29.762520
4048.242188	-29.553797
4091.308594	-29.801052
4134.375000	-30.047653
4177.441406	-30.411592
4220.507812	-30.464207
4263.574219	-30.254200
4306.640625	-30.451294
4349.707031	-30.532013
4392.773438	-30.498554
4435.839844	-30.722811
4478.906250	-30.648130
4521.972656	-30.712500
4565.039062	-30.774704
4608.105469	-30.749226
4651.171875	-30.718737
4694.238281	-30.804045
4737.304688	-30.920630
4780.371094	-30.550846
4823.437500	-30.700893
4866.503906	-31.007624
4909.570312	-31.123077
4952.636719	-30.810360
4995.703125	-31.090275
5038.769531	-31.363382
5081.835938	-31.183687
5124.902344	-31.556549
5167.968750	-31.390181
5211.035156	-31.319027
5254.101562	-31.287611
5297.167969	-31.398481
5340.234375	-31.018677
5383.300781	-31.238520
5426.367188	-31.671383
5469.433594	-31.621277
5512.500000	-31.733837
5555.566406	-31.381357
5598.632812	-31.366129
5641.699219	-31.373150
5684.765625	-31.859169
5727.832031	-31.962700
5770.898438	-32.038418
5813.964844	-32.006805
5857.031250	-31.849335
5900.097656	-31.852678
5943.164062	-31.351725
5986.230469	-31.552948
6029.296875	-31.837805
6072.363281	-31.880917
6115.429688	-31.535660
6158.496094	-31.606802
6201.562500	-32.000534
6244.628906	-32.168167
6287.695312	-31.937237
6330.761719	-31.994587
6373.828125	-32.021748
6416.894531	-32.184219
6459.960938	-31.924816
6503.027344	-31.955774
6546.093750	-32.069454
6589.160156	-32.347736
6632.226562	-32.449776
6675.292969	-32.481853
6718.359375	-32.689034
6761.425781	-32.578316
6804.492188	-32.266823
6847.558594	-31.789240
6890.625000	-32.103226
6933.691406	-32.277931
6976.757812	-32.115505
7019.824219	-32.733837
7062.890625	-32.773010
7105.957031	-32.862827
7149.023438	-32.890503
7192.089844	-32.562801
7235.156250	-32.559967
7278.222656	-32.433342
7321.289062	-32.822548
7364.355469	-32.631191
7407.421875	-32.858284
7450.488281	-32.961376
7493.554688	-33.138142
7536.621094	-33.237038
7579.687500	-32.760067
7622.753906	-32.824219
7665.820312	-33.107254
7708.886719	-33.530594
7751.953125	-33.497868
7795.019531	-33.215706
7838.085938	-33.314060
7881.152344	-32.682945
7924.218750	-32.906380
7967.285156	-33.538822
8010.351562	-33.217411
8053.417969	-33.525303
8096.484375	-33.335224
8139.550781	-33.073631
8182.617188	-32.777374
8225.683594	-32.782944
8268.750000	-33.021778
8311.816406	-33.327717
8354.882812	-33.623894
8397.949219	-33.648792
8441.015625	-34.005043
8484.082031	-33.884308
8527.148438	-33.757351
8570.214844	-33.666889
8613.281250	-33.320717
8656.347656	-33.152180
8699.414062	-33.444881
8742.480469	-33.879044
8785.546875	-33.466011
8828.613281	-33.345310
8871.679688	-33.755558
8914.746094	-34.172215
8957.812500	-33.920834
9000.878906	-33.559872
9043.945312	-33.681652
9087.011719	-33.704994
9130.078125	-33.742077
9173.144531	-33.775692
9216.210938	-33.655251
9259.277344	-33.693279
9302.343750	-34.176804
9345.410156	-34.088680
9388.476562	-34.049923
9431.542969	-34.219906
9474.609375	-34.029289
9517.675781	-34.235455
9560.742188	-34.156139
9603.808594	-33.810345
9646.875000	-33.980900
9689.941406	-34.163895
9733.007812	-34.045300
9776.074219	-34.040359
9819.140625	-34.098984
9862.207031	-34.155167
9905.273438	-34.571743
9948.339844	-34.536705
9991.406250	-34.544712
10034.472656	-34.672218
10077.539062	-34.276794
10120.605469	-34.202488
10163.671875	-34.169304
10206.738281	-34.514919
10249.804688	-34.612968
10292.871094	-33.935776
10335.937500	-34.299454
10379.003906	-34.399048
10422.070312	-34.200256
10465.136719	-34.459061
10508.203125	-34.608543
10551.269531	-34.299938
10594.335938	-34.467152
10637.402344	-34.597103
10680.468750	-35.029488
10723.535156	-34.503571
10766.601562	-34.410648
10809.667969	-34.584850
10852.734375	-34.301674
10895.800781	-34.787994
10938.867188	-35.043858
10981.933594	-34.615967
11025.000000	-34.523781
11068.066406	-34.591244
11111.132812	-34.499107
11154.199219	-35.053719
11197.265625	-35.295376
11240.332031	-34.882832
11283.398438	-34.534229
11326.464844	-34.552765
11369.531250	-34.621403
11412.597656	-35.055573
11455.664062	-34.791119
11498.730469	-35.012829
11541.796875	-35.083221
11584.863281	-35.212063
11627.929688	-35.038239
11670.996094	-35.250683
11714.062500	-35.076149
11757.128906	-34.816673
11800.195312	-35.003910
11843.261719	-34.916588
11886.328125	-34.749729
11929.394531	-34.986607
11972.460938	-35.260521
12015.527344	-35.292576
12058.593750	-35.041195
12101.660156	-34.720615
12144.726562	-35.064915
12187.792969	-35.462296
12230.859375	-35.480751
12273.925781	-35.399193
12316.992188	-35.827667
12360.058594	-35.446320
12403.125000	-35.210747
12446.191406	-35.235580
12489.257812	-35.823692
12532.324219	-35.456165
12575.390625	-35.191662
12618.457031	-35.437347
12661.523438	-35.297554
12704.589844	-35.140945
12747.656250	-35.401268
12790.722656	-35.651714
12833.789062	-35.814365
12876.855469	-35.648445
12919.921875	-35.335907
12962.988281	-35.750980
13006.054688	-35.829998
13049.121094	-35.602840
13092.187500	-35.742367
13135.253906	-35.793003
13178.320312	-35.908054
13221.386719	-35.830269
13264.453125	-35.788029
13307.519531	-35.790741
13350.585938	-35.436043
13393.652344	-35.864483
13436.718750	-36.285458
13479.785156	-36.054432
13522.851562	-35.753975
13565.917969	-35.884464
13608.984375	-36.489601
13652.050781	-35.869385
13695.117188	-36.164696
13738.183594	-36.363739
13781.250000	-36.083824
13824.316406	-35.586250
13867.382812	-35.697422
13910.449219	-36.115688
13953.515625	-36.564644
13996.582031	-36.455517
14039.648438	-36.268078
14082.714844	-36.161049
14125.781250	-36.088825
14168.847656	-36.541893
14211.914062	-36.621426
14254.980469	-36.423664
14298.046875	-35.894020
14341.113281	-35.608543
14384.179688	-36.058151
14427.246094	-36.012562
14470.312500	-36.046963
14513.378906	-36.524910
14556.445312	-36.645081
14599.511719	-36.553757
14642.578125	-36.049870
14685.644531	-37.017048
14728.710938	-36.715389
14771.777344	-36.332928
14814.843750	-36.057808
14857.910156	-36.003460
14900.976562	-36.148525
14944.042969	-36.636993
14987.109375	-36.260143
15030.175781	-36.541557
15073.242188	-36.846592
15116.308594	-36.474689
15159.375000	-36.570133
15202.441406	-36.635044
15245.507812	-36.667442
15288.574219	-36.688976
15331.640625	-36.602802
15374.707031	-36.866142
15417.773438	-36.745060
15460.839844	-36.647934
15503.906250	-36.809940
15546.972656	-36.755009
15590.039062	-36.742821
15633.105469	-37.032825
15676.171875	-36.811520
15719.238281	-36.604065
15762.304688	-37.214653
15805.371094	-37.483021
15848.437500	-36.816631
15891.503906	-36.482990
15934.570312	-36.762863
15977.636719	-36.767689
16020.703125	-36.866398
16063.769531	-37.148941
16106.835938	-36.992046
16149.902344	-36.959499
16192.968750	-37.058247
16236.035156	-37.155373
16279.101562	-37.211639
16322.167969	-37.296856
16365.234375	-37.360046
16408.300781	-36.982479
16451.367188	-36.930710
16494.433594	-36.805248
16537.500000	-37.353710
16580.566406	-37.786209
16623.632812	-37.386440
16666.699219	-37.073444
16709.765625	-36.827679
16752.832031	-37.081989
16795.898438	-36.959747
16838.964844	-37.300495
16882.031250	-37.219055
16925.097656	-37.452171
16968.164062	-37.311962
17011.230469	-37.248039
17054.296875	-37.290836
17097.363281	-37.752918
17140.429688	-37.436207
17183.496094	-37.444221
17226.562500	-37.760418
17269.628906	-37.590034
17312.695312	-38.157452
17355.761719	-38.004749
17398.828125	-37.428883
17441.894531	-36.853363
17484.960938	-36.804504
17528.027344	-37.424019
17571.093750	-37.669327
17614.160156	-37.606567
17657.226562	-37.942566
17700.292969	-38.009636
17743.359375	-37.744766
17786.425781	-37.587769
17829.492188	-37.710617
17872.558594	-37.750488
17915.625000	-38.011997
17958.691406	-38.175648
18001.757812	-38.617558
18044.824219	-38.045776
18087.890625	-37.847034
18130.957031	-37.858070
18174.023438	-37.880524
18217.089844	-38.341389
18260.156250	-38.213699
18303.222656	-37.766396
18346.289062	-37.872421
18389.355469	-38.399124
18432.421875	-38.161613
18475.488281	-37.925392
18518.554688	-38.128178
18561.621094	-38.174896
18604.687500	-38.010983
18647.753906	-38.156963
18690.820312	-38.359077
18733.886719	-38.505260
18776.953125	-38.408783
18820.019531	-38.456421
18863.085938	-37.841137
18906.152344	-37.919178
18949.218750	-38.175926
18992.285156	-38.147392
19035.351562	-37.856567
19078.417969	-37.802868
19121.484375	-38.159340
19164.550781	-37.984062
19207.617188	-38.051544
19250.683594	-38.262844
19293.750000	-38.551697
19336.816406	-38.668819
19379.882812	-38.386822
19422.949219	-38.219833
19466.015625	-38.475922
19509.082031	-38.220314
19552.148438	-37.940628
19595.214844	-38.185051
19638.281250	-38.152737
19681.347656	-37.770901
19724.414062	-37.968166
19767.480469	-38.449554
19810.546875	-38.800236
19853.613281	-38.705173
19896.679688	-38.699253
19939.746094	-38.521198
19982.812500	-38.263630
20025.878906	-37.926765
20068.945312	-38.176201
20112.011719	-38.271965
20155.078125	-38.707447
20198.144531	-39.295601
20241.210938	-38.783848
20284.277344	-38.640572
20327.343750	-38.813114
20370.410156	-38.563122
20413.476562	-38.163170
20456.542969	-38.293518
20499.609375	-38.845074
20542.675781	-39.024021
20585.742188	-38.854534
20628.808594	-39.240616
20671.875000	-39.267521
20714.941406	-39.456608
20758.007812	-39.485668
20801.074219	-39.294403
20844.140625	-39.417114
20887.207031	-39.276993
20930.273438	-38.794395
20973.339844	-38.721855
21016.406250	-39.311440
21059.472656	-39.149929
21102.539062	-39.356251
21145.605469	-39.638626
21188.671875	-39.458553
21231.738281	-39.441624
21274.804688	-39.478603
21317.871094	-39.567688
21360.937500	-39.750034
21404.003906	-39.898026
21447.070312	-39.989033
21490.136719	-40.142292
21533.203125	-39.970085
21576.269531	-40.174294
21619.335938	-40.341610
21662.402344	-40.465942
21705.468750	-40.558159
21748.535156	-40.928524
21791.601562	-41.710854
21834.667969	-42.704792
21877.734375	-43.691116
21920.800781	-45.213669
21963.867188	-47.912205
22006.933594	-51.996437
