Frequency (Hz)	Level (dB)
43.066406	-21.847317
86.132812	-16.246782
129.199219	-13.913830
172.265625	-14.734880
215.332031	-15.933264
258.398438	-16.094591
301.464844	-16.304665
344.531250	-16.497450
387.597656	-16.614325
430.664062	-16.830347
473.730469	-17.155462
516.796875	-17.696844
559.863281	-17.636169
602.929688	-17.418301
645.996094	-17.735804
689.062500	-18.031281
732.128906	-17.888340
775.195312	-18.261021
818.261719	-18.494942
861.328125	-18.839306
904.394531	-19.314016
947.460938	-19.741215
990.527344	-19.947174
1033.593750	-20.328901
1076.660156	-20.242599
1119.726562	-20.419779
1162.792969	-20.623985
1205.859375	-20.589268
1248.925781	-20.785622
1291.992188	-21.656326
1335.058594	-21.735460
1378.125000	-21.199558
1421.191406	-21.668402
1464.257812	-22.144701
1507.324219	-21.844978
1550.390625	-21.859829
1593.457031	-22.196268
1636.523438	-22.194822
1679.589844	-22.368662
1722.656250	-22.823513
1765.722656	-22.679968
1808.789062	-22.801538
1851.855469	-22.863388
1894.921875	-23.219675
1937.988281	-23.079710
1981.054688	-23.286705
2024.121094	-23.830135
2067.187500	-23.746321
2110.253906	-23.588104
2153.320312	-23.421385
2196.386719	-23.857056
2239.453125	-23.590216
2282.519531	-23.888012
2325.585938	-24.004488
2368.652344	-24.267767
2411.718750	-24.400005
2454.785156	-24.849813
2497.851562	-24.323397
2540.917969	-24.221645
2583.984375	-24.545784
2627.050781	-24.692081
2670.117188	-24.549606
2713.183594	-24.353861
2756.250000	-24.655878
2799.316406	-24.687387
2842.382812	-24.760351
2885.449219	-25.220091
2928.515625	-25.216459
2971.582031	-25.447731
3014.648438	-25.398626
3057.714844	-24.993858
3100.781250	-25.262066
3143.847656	-25.282660
3186.914062	-25.033440
3229.980469	-25.265308
3273.046875	-25.703123
3316.113281	-25.788506
3359.179688	-25.515823
3402.246094	-25.496325
3445.312500	-25.837027
3488.378906	-25.766626
3531.445312	-25.669441
3574.511719	-25.836143
3617.578125	-25.972437
3660.644531	-25.594896
3703.710938	-25.995068
3746.777344	-26.298153
3789.843750	-26.155075
3832.910156	-26.444050
3875.976562	-26.252014
3919.042969	-26.369848
3962.109375	-26.211342
4005.175781	-26.525560
4048.242188	-26.560881
4091.308594	-26.674551
4134.375000	-26.365061
4177.441406	-26.285381
4220.507812	-26.304028
4263.574219	-26.354010
4306.640625	-26.418941
4349.707031	-26.423815
4392.773438	-26.649065
4435.839844	-26.842381
4478.906250	-26.707689
4521.972656	-27.209383
4565.039062	-27.280275
4608.105469	-27.139412
4651.171875	-27.044897
4694.238281	-26.885052
4737.304688	-26.576088
4780.371094	-26.509130
4823.437500	-26.512894
4866.503906	-27.265137
4909.570312	-27.299551
4952.636719	-26.970400
4995.703125	-26.965008
5038.769531	-27.455717
5081.835938	-27.360983
5124.902344	-27.245163
5167.968750	-27.352133
5211.035156	-27.484360
5254.101562	-27.624666
5297.167969	-27.634157
5340.234375	-27.607969
5383.300781	-27.359316
5426.367188	-27.670851
5469.433594	-27.813406
5512.500000	-27.701389
5555.566406	-27.657713
5598.632812	-27.405727
5641.699219	-27.499027
5684.765625	-27.465891
5727.832031	-27.395081
5770.898438	-27.590324
5813.964844	-27.821108
5857.031250	-27.601881
5900.097656	-28.215578
5943.164062	-27.476427
5986.230469	-27.384251
6029.296875	-27.685740
6072.363281	-27.857683
6115.429688	-27.839506
6158.496094	-27.830980
6201.562500	-28.161152
6244.628906	-28.104946
6287.695312	-28.016861
6330.761719	-28.366201
6373.828125	-28.167278
6416.894531	-27.744656
6459.960938	-27.911556
6503.027344	-28.496429
6546.093750	-28.783415
6589.160156	-28.590445
6632.226562	-28.654640
6675.292969	-28.547611
6718.359375	-28.317087
6761.425781	-28.237902
6804.492188	-28.894909
6847.558594	-28.743320
6890.625000	-28.674437
6933.691406	-28.488756
6976.757812	-28.548700
7019.824219	-28.477818
7062.890625	-28.718269
7105.957031	-28.724852
7149.023438	-28.921297
7192.089844	-29.239178
7235.156250	-28.728342
7278.222656	-28.523905
7321.289062	-28.859554
7364.355469	-28.767365
7407.421875	-28.921824
7450.488281	-28.824841
7493.554688	-28.763515
7536.621094	-28.761818
7579.687500	-28.746443
7622.753906	-28.986355
7665.820312	-29.082977
7708.886719	-29.412481
7751.953125	-29.260004
7795.019531	-28.948143
7838.085938	-29.184195
7881.152344	-29.218235
7924.218750	-29.199026
7967.285156	-29.391006
8010.351562	-29.303617
8053.417969	-29.069273
8096.484375	-29.027731
8139.550781	-29.054121
8182.617188	-29.226889
8225.683594	-29.176945
8268.750000	-29.599174
8311.816406	-29.437790
8354.882812	-29.263933
8397.949219	-29.210337
8441.015625	-29.467474
8484.082031	-29.192301
8527.148438	-29.522190
8570.214844	-29.914621
8613.281250	-29.900610
8656.347656	-29.806513
8699.414062	-29.494133
8742.480469	-29.952827
8785.546875	-29.761740
8828.613281	-29.766703
8871.679688	-30.008060
8914.746094	-30.046452
8957.812500	-29.859127
9000.878906	-29.813955
9043.945312	-29.999336
9087.011719	-29.914988
9130.078125	-30.028927
9173.144531	-30.184860
9216.210938	-30.346573
9259.277344	-30.324209
9302.343750	-30.263052
9345.410156	-29.949724
9388.476562	-29.964636
9431.542969	-29.995363
9474.609375	-30.051332
9517.675781	-29.984688
9560.742188	-29.828169
9603.808594	-29.841583
9646.875000	-30.279770
9689.941406	-30.555347
9733.007812	-30.406075
9776.074219	-30.160679
9819.140625	-30.332708
9862.207031	-30.325062
9905.273438	-30.297110
9948.339844	-30.272949
9991.406250	-30.408360
10034.472656	-30.588224
10077.539062	-30.344852
10120.605469	-30.422283
10163.671875	-30.517250
10206.738281	-30.605501
10249.804688	-30.651834
10292.871094	-30.463793
10335.937500	-30.393419
10379.003906	-30.549988
10422.070312	-30.427109
10465.136719	-30.248375
10508.203125	-30.275873
10551.269531	-30.552908
10594.335938	-30.948786
10637.402344	-31.058792
10680.468750	-30.848257
10723.535156	-31.050484
10766.601562	-31.327494
10809.667969	-31.285437
10852.734375	-31.016579
10895.800781	-30.932167
10938.867188	-30.664682
10981.933594	-30.702724
11025.000000	-30.932354
11068.066406	-31.177261
11111.132812	-31.243315
11154.199219	-31.243124
11197.265625	-31.094988
11240.332031	-30.796721
11283.398438	-30.663490
11326.464844	-30.892723
11369.531250	-31.330830
11412.597656	-31.149298
11455.664062	-31.176096
11498.730469	-31.189001
11541.796875	-30.854664
11584.863281	-31.141602
11627.929688	-31.361732
11670.996094	-31.769711
11714.062500	-31.409143
11757.128906	-31.249910
11800.195312	-31.266966
11843.261719	-31.400322
11886.328125	-31.375753
11929.394531	-31.282534
11972.460938	-31.411280
12015.527344	-31.301619
12058.593750	-31.367039
12101.660156	-31.500790
12144.726562	-31.211437
12187.792969	-31.169441
12230.859375	-31.447958
12273.925781	-31.507299
12316.992188	-31.565483
12360.058594	-31.838207
12403.125000	-31.738710
12446.191406	-32.037560
12489.257812	-31.588781
12532.324219	-32.157856
12575.390625	-32.196091
12618.457031	-32.143211
12661.523438	-32.133152
12704.589844	-32.196835
12747.656250	-32.264053
12790.722656	-31.856190
12833.789062	-31.862728
12876.855469	-32.047539
12919.921875	-31.648947
12962.988281	-31.437670
13006.054688	-31.781351
13049.121094	-32.079102
13092.187500	-32.098583
13135.253906	-31.967628
13178.320312	-32.563873
13221.386719	-32.280247
13264.453125	-32.213100
13307.519531	-32.298424
13350.585938	-32.097439
13393.652344	-31.923828
13436.718750	-32.469868
13479.785156	-32.366116
13522.851562	-32.230549
13565.917969	-31.859940
13608.984375	-31.918222
13652.050781	-32.585487
13695.117188	-32.487087
13738.183594	-32.093136
13781.250000	-32.538906
13824.316406	-32.726078
13867.382812	-32.279324
13910.449219	-32.752117
13953.515625	-32.855427
13996.582031	-32.595909
14039.648438	-32.330647
14082.714844	-32.558350
14125.781250	-32.435165
14168.847656	-32.487511
14211.914062	-32.646255
14254.980469	-32.548256
14298.046875	-32.459469
14341.113281	-32.783237
14384.179688	-33.162331
14427.246094	-33.146740
14470.312500	-32.801743
14513.378906	-32.503067
14556.445312	-32.946281
14599.511719	-33.069313
14642.578125	-32.595989
14685.644531	-32.834751
14728.710938	-33.126690
14771.777344	-33.312683
14814.843750	-33.364750
14857.910156	-32.940964
14900.976562	-32.901081
14944.042969	-33.071663
14987.109375	-32.997093
15030.175781	-32.836044
15073.242188	-32.923531
15116.308594	-33.158958
15159.375000	-32.863995
15202.441406	-32.892918
15245.507812	-33.603233
15288.574219	-33.353100
15331.640625	-33.268669
15374.707031	-33.386520
15417.773438	-33.063808
15460.839844	-32.685028
15503.906250	-33.069542
15546.972656	-33.039673
15590.039062	-33.353973
15633.105469	-33.332878
15676.171875	-33.322731
15719.238281	-33.743813
15762.304688	-33.817543
15805.371094	-33.774143
15848.437500	-33.666592
15891.503906	-33.676449
15934.570312	-33.606140
15977.636719	-33.383881
16020.703125	-33.675755
16063.769531	-33.747616
16106.835938	-33.664211
16149.902344	-33.355644
16192.968750	-33.707371
16236.035156	-33.717674
16279.101562	-33.664459
16322.167969	-33.611034
16365.234375	-33.444065
16408.300781	-33.843304
16451.367188	-34.168999
16494.433594	-33.739334
16537.500000	-33.801945
16580.566406	-33.865734
16623.632812	-33.764862
16666.699219	-33.890957
16709.765625	-34.197140
16752.832031	-34.199509
16795.898438	-34.369286
16838.964844	-34.352314
16882.031250	-34.032188
16925.097656	-34.072453
16968.164062	-33.905178
17011.230469	-34.122173
17054.296875	-34.254139
17097.363281	-34.581825
17140.429688	-33.713680
17183.496094	-33.910149
17226.562500	-33.848164
17269.628906	-34.244999
17312.695312	-34.497566
17355.761719	-34.190254
17398.828125	-34.365356
17441.894531	-34.546551
17484.960938	-34.134838
17528.027344	-34.203167
17571.093750	-33.968678
17614.160156	-34.280323
17657.226562	-34.397503
17700.292969	-34.319405
17743.359375	-34.635475
17786.425781	-34.830643
17829.492188	-34.194450
17872.558594	-34.591736
17915.625000	-34.904446
17958.691406	-34.480888
18001.757812	-34.366009
18044.824219	-34.960365
18087.890625	-34.890259
18130.957031	-34.865402
18174.023438	-34.797291
18217.089844	-34.643627
18260.156250	-34.842587
18303.222656	-35.334827
18346.289062	-35.479061
18389.355469	-35.351978
18432.421875	-34.837067
18475.488281	-35.047611
18518.554688	-35.219532
18561.621094	-34.784668
18604.687500	-34.971687
18647.753906	-35.019257
18690.820312	-35.476551
18733.886719	-35.599396
18776.953125	-35.602325
18820.019531	-36.003292
18863.085938	-35.359928
18906.152344	-35.091064
18949.218750	-35.140747
18992.285156	-35.187305
19035.351562	-35.427410
19078.417969	-35.622753
19121.484375	-35.169968
19164.550781	-35.463249
19207.617188	-35.724957
19250.683594	-35.756390
19293.750000	-35.734161
19336.816406	-35.843163
19379.882812	-35.773136
19422.949219	-35.643246
19466.015625	-35.679359
19509.082031	-35.560711
19552.148438	-35.310719
19595.214844	-35.621738
19638.281250	-35.699726
19681.347656	-35.520508
19724.414062	-35.327103
19767.480469	-35.700321
19810.546875	-36.145557
19853.613281	-36.206482
19896.679688	-36.301567
19939.746094	-35.488014
19982.812500	-35.488888
20025.878906	-35.566330
20068.945312	-35.956459
20112.011719	-36.344425
20155.078125	-36.019966
20198.144531	-35.949547
20241.210938	-35.805767
20284.277344	-35.857468
20327.343750	-36.086170
20370.410156	-36.361526
20413.476562	-36.152618
20456.542969	-36.439243
20499.609375	-36.588829
20542.675781	-36.574596
20585.742188	-36.445255
20628.808594	-36.457188
20671.875000	-35.973499
20714.941406	-35.971470
20758.007812	-35.963139
20801.074219	-35.948902
20844.140625	-36.113586
20887.207031	-36.626503
20930.273438	-36.393059
20973.339844	-36.144154
21016.406250	-35.810707
21059.472656	-35.837856
21102.539062	-36.214088
21145.605469	-36.730186
21188.671875	-36.729218
21231.738281	-36.756489
21274.804688	-36.571018
21317.871094	-36.597744
21360.937500	-36.996861
21404.003906	-37.161274
21447.070312	-36.927063
21490.136719	-36.707249
21533.203125	-37.106422
21576.269531	-37.073849
21619.335938	-36.802013
21662.402344	-37.367043
21705.468750	-37.499073
21748.535156	-37.583199
21791.601562	-37.162323
21834.667969	-36.820492
21877.734375	-37.278046
21920.800781	-37.526291
21963.867188	-38.049561
22006.933594	-38.065159
