Frequency (Hz)	Level (dB)
43.066406	-32.942551
86.132812	-26.639582
129.199219	-23.777243
172.265625	-24.746889
215.332031	-25.807386
258.398438	-25.792320
301.464844	-25.773754
344.531250	-26.264004
387.597656	-26.439995
430.664062	-26.352652
473.730469	-26.657209
516.796875	-26.626696
559.863281	-26.546207
602.929688	-26.143646
645.996094	-26.435909
689.062500	-26.879751
732.128906	-26.917753
775.195312	-27.277723
818.261719	-27.164173
861.328125	-27.681065
904.394531	-27.842304
947.460938	-27.984247
990.527344	-27.960402
1033.593750	-28.255901
1076.660156	-28.316790
1119.726562	-28.246624
1162.792969	-28.476273
1205.859375	-28.909107
1248.925781	-29.036015
1291.992188	-28.786448
1335.058594	-28.957119
1378.125000	-28.962734
1421.191406	-29.455462
1464.257812	-29.885490
1507.324219	-29.543907
1550.390625	-29.559599
1593.457031	-30.344381
1636.523438	-30.554176
1679.589844	-30.279131
1722.656250	-29.986454
1765.722656	-29.972496
1808.789062	-30.616755
1851.855469	-30.641960
1894.921875	-31.091177
1937.988281	-31.210922
1981.054688	-31.462933
2024.121094	-31.020927
2067.187500	-30.985189
2110.253906	-31.158632
2153.320312	-31.543114
2196.386719	-31.687485
2239.453125	-31.679934
2282.519531	-31.395521
2325.585938	-31.385624
2368.652344	-31.554306
2411.718750	-31.845280
2454.785156	-32.207211
2497.851562	-32.173225
2540.917969	-32.151684
2583.984375	-32.227116
2627.050781	-32.383240
2670.117188	-32.598007
2713.183594	-32.423069
2756.250000	-32.375984
2799.316406	-32.416744
2842.382812	-32.557968
2885.449219	-32.300690
2928.515625	-32.388657
2971.582031	-32.946468
3014.648438	-33.098358
3057.714844	-33.117031
3100.781250	-33.000172
3143.847656	-32.675716
3186.914062	-32.678467
3229.980469	-32.965286
3273.046875	-33.054028
3316.113281	-32.752804
3359.179688	-33.147942
3402.246094	-33.487358
3445.312500	-33.261944
3488.378906	-33.758293
3531.445312	-33.378368
3574.511719	-33.517075
3617.578125	-33.824360
3660.644531	-33.484894
3703.710938	-33.202919
3746.777344	-33.593410
3789.843750	-33.864048
3832.910156	-33.869659
3875.976562	-33.605492
3919.042969	-33.892113
3962.109375	-34.551842
4005.175781	-34.251484
4048.242188	-34.012768
4091.308594	-33.951801
4134.375000	-33.926685
4177.441406	-34.382095
4220.507812	-34.575886
4263.574219	-34.442104
4306.640625	-34.433105
4349.707031	-34.421291
4392.773438	-34.179264
4435.839844	-34.352245
4478.906250	-34.464336
4521.972656	-34.709503
4565.039062	-34.722755
4608.105469	-34.695107
4651.171875	-35.067719
4694.238281	-34.767433
4737.304688	-34.557499
4780.371094	-34.593311
4823.437500	-34.662861
4866.503906	-35.016724
4909.570312	-35.040550
4952.636719	-34.876030
4995.703125	-34.919373
5038.769531	-35.436653
5081.835938	-35.083225
5124.902344	-35.055183
5167.968750	-34.863762
5211.035156	-34.698509
5254.101562	-35.480232
5297.167969	-35.439648
5340.234375	-35.311028
5383.300781	-35.247654
5426.367188	-35.375095
5469.433594	-35.592693
5512.500000	-35.696609
5555.566406	-35.438770
5598.632812	-35.326328
5641.699219	-35.498402
5684.765625	-35.546368
5727.832031	-35.568371
5770.898438	-35.793262
5813.964844	-35.623817
5857.031250	-35.529522
5900.097656	-35.750130
5943.164062	-35.491974
5986.230469	-35.745773
6029.296875	-36.044365
6072.363281	-36.135712
6115.429688	-35.869846
6158.496094	-35.872375
6201.562500	-36.223892
6244.628906	-35.905758
6287.695312	-36.036610
6330.761719	-36.074081
6373.828125	-35.761181
6416.894531	-35.632694
6459.960938	-35.470951
6503.027344	-35.876808
6546.093750	-36.353897
6589.160156	-36.489410
6632.226562	-36.500854
6675.292969	-36.545578
6718.359375	-36.662945
6761.425781	-36.859657
6804.492188	-36.546658
6847.558594	-36.261703
6890.625000	-36.484535
6933.691406	-36.153053
6976.757812	-35.955120
7019.824219	-36.516598
7062.890625	-36.719223
7105.957031	-36.853405
7149.023438	-37.087540
7192.089844	-36.650505
7235.156250	-36.869884
7278.222656	-36.803547
7321.289062	-36.546989
7364.355469	-36.248634
7407.421875	-36.640362
7450.488281	-36.864937
7493.554688	-37.023872
7536.621094	-37.424648
7579.687500	-37.519432
7622.753906	-37.304520
7665.820312	-37.038776
7708.886719	-36.807819
7751.953125	-36.825268
7795.019531	-37.077038
7838.085938	-37.253208
7881.152344	-37.176483
7924.218750	-37.170517
7967.285156	-37.434048
8010.351562	-37.833244
8053.417969	-37.526508
8096.484375	-37.453873
8139.550781	-37.386143
8182.617188	-37.182930
8225.683594	-37.448723
8268.750000	-37.434929
8311.816406	-37.454128
8354.882812	-37.308533
8397.949219	-37.306026
8441.015625	-38.122833
8484.082031	-37.949059
8527.148438	-37.781204
8570.214844	-37.595676
8613.281250	-37.462078
8656.347656	-37.428684
8699.414062	-37.486618
8742.480469	-38.039791
8785.546875	-37.296474
8828.613281	-36.989811
8871.679688	-37.697449
8914.746094	-37.977417
8957.812500	-37.859985
9000.878906	-37.852234
9043.945312	-37.929466
9087.011719	-37.700264
9130.078125	-37.827339
9173.144531	-37.897030
9216.210938	-38.104317
9259.277344	-37.810993
9302.343750	-37.820084
9345.410156	-38.170376
9388.476562	-38.050404
9431.542969	-37.714535
9474.609375	-37.454811
9517.675781	-37.672237
9560.742188	-38.007942
9603.808594	-38.281021
9646.875000	-38.505600
9689.941406	-38.328995
9733.007812	-37.970631
9776.074219	-37.850178
9819.140625	-38.108364
9862.207031	-38.220013
9905.273438	-38.243423
9948.339844	-38.166695
9991.406250	-38.516804
10034.472656	-38.510052
10077.539062	-37.655819
10120.605469	-37.734570
10163.671875	-38.378002
10206.738281	-38.696220
10249.804688	-38.643650
10292.871094	-38.116467
10335.937500	-38.426186
10379.003906	-38.765831
10422.070312	-38.495537
10465.136719	-38.216049
10508.203125	-38.384277
10551.269531	-38.888592
10594.335938	-38.848145
10637.402344	-38.749386
10680.468750	-38.821518
10723.535156	-38.508442
10766.601562	-38.658577
10809.667969	-38.748222
10852.734375	-38.337002
10895.800781	-38.674564
10938.867188	-38.659157
10981.933594	-38.458790
11025.000000	-38.673367
11068.066406	-38.932564
11111.132812	-38.855228
11154.199219	-38.869343
11197.265625	-39.283249
11240.332031	-38.922344
11283.398438	-38.484390
11326.464844	-38.670666
11369.531250	-38.637909
11412.597656	-38.724873
11455.664062	-39.002037
11498.730469	-38.957024
11541.796875	-38.952179
11584.863281	-38.757076
11627.929688	-38.892330
11670.996094	-39.159142
11714.062500	-38.797390
11757.128906	-38.812813
11800.195312	-38.936356
11843.261719	-39.125469
11886.328125	-39.147778
11929.394531	-39.355053
11972.460938	-39.355206
12015.527344	-38.945614
12058.593750	-39.014366
12101.660156	-38.572891
12144.726562	-38.876137
12187.792969	-39.564789
12230.859375	-39.444447
12273.925781	-39.653740
12316.992188	-39.685467
12360.058594	-39.382229
12403.125000	-39.404293
12446.191406	-39.194351
12489.257812	-39.574917
12532.324219	-39.352516
12575.390625	-39.182602
12618.457031	-39.380856
12661.523438	-39.552944
12704.589844	-39.050335
12747.656250	-39.118073
12790.722656	-39.501495
12833.789062	-39.522167
12876.855469	-39.833698
12919.921875	-39.563663
12962.988281	-39.602448
13006.054688	-39.711910
13049.121094	-39.616772
13092.187500	-39.717999
13135.253906	-39.749489
13178.320312	-39.641434
13221.386719	-39.505356
13264.453125	-39.663425
13307.519531	-39.901295
13350.585938	-39.571865
13393.652344	-39.687351
13436.718750	-39.978699
13479.785156	-39.989033
13522.851562	-39.829594
13565.917969	-39.676205
13608.984375	-39.943439
13652.050781	-40.025951
13695.117188	-40.185749
13738.183594	-40.104767
13781.250000	-39.760174
13824.316406	-39.511051
13867.382812	-39.716488
13910.449219	-39.861862
13953.515625	-40.003696
13996.582031	-39.805061
14039.648438	-39.730381
14082.714844	-39.737770
14125.781250	-40.082951
14168.847656	-40.316177
14211.914062	-40.380611
14254.980469	-40.257099
14298.046875	-39.593689
14341.113281	-39.946480
14384.179688	-40.268650
14427.246094	-40.265476
14470.312500	-40.134060
14513.378906	-40.279411
14556.445312	-40.245209
14599.511719	-40.192150
14642.578125	-40.443642
14685.644531	-40.748619
14728.710938	-40.385311
14771.777344	-40.404293
14814.843750	-40.247772
14857.910156	-40.152294
14900.976562	-40.315067
14944.042969	-40.379364
14987.109375	-40.617981
15030.175781	-40.597031
15073.242188	-40.844120
15116.308594	-40.460709
15159.375000	-40.417286
15202.441406	-40.620827
15245.507812	-40.712269
15288.574219	-40.419804
15331.640625	-40.412956
15374.707031	-40.686646
15417.773438	-40.550312
15460.839844	-40.691864
15503.906250	-40.300655
15546.972656	-40.563503
15590.039062	-40.509953
15633.105469	-40.650558
15676.171875	-41.021980
15719.238281	-40.601723
15762.304688	-41.179264
15805.371094	-41.154701
15848.437500	-40.749317
15891.503906	-40.475006
15934.570312	-40.648975
15977.636719	-40.520283
16020.703125	-40.733330
16063.769531	-40.921215
16106.835938	-41.091862
16149.902344	-41.029953
16192.968750	-40.920807
16236.035156	-40.526093
16279.101562	-40.632145
16322.167969	-41.031246
16365.234375	-41.091652
16408.300781	-40.613914
16451.367188	-40.860199
16494.433594	-40.737072
16537.500000	-41.131039
16580.566406	-41.274902
16623.632812	-40.947659
16666.699219	-40.936272
16709.765625	-40.993774
16752.832031	-41.059708
16795.898438	-40.907764
16838.964844	-40.979012
16882.031250	-41.011051
16925.097656	-41.187996
16968.164062	-41.071365
17011.230469	-40.946663
17054.296875	-41.087326
17097.363281	-41.695271
17140.429688	-41.600334
17183.496094	-41.627609
17226.562500	-41.520699
17269.628906	-41.466755
17312.695312	-41.407124
17355.761719	-41.275574
17398.828125	-41.073154
17441.894531	-40.626938
17484.960938	-40.710388
17528.027344	-41.249237
17571.093750	-41.431583
17614.160156	-41.029053
17657.226562	-41.385471
17700.292969	-41.734798
17743.359375	-41.917011
17786.425781	-41.607662
17829.492188	-41.203068
17872.558594	-41.374874
17915.625000	-41.822182
17958.691406	-41.959984
18001.757812	-41.549641
18044.824219	-41.477413
18087.890625	-41.822430
18130.957031	-41.416676
18174.023438	-41.248188
18217.089844	-41.352337
18260.156250	-41.619408
18303.222656	-41.706444
18346.289062	-41.879585
18389.355469	-41.797512
18432.421875	-41.557133
18475.488281	-41.427418
18518.554688	-41.898247
18561.621094	-41.992348
18604.687500	-41.561970
18647.753906	-41.915901
18690.820312	-42.390549
18733.886719	-42.166019
18776.953125	-41.870945
18820.019531	-41.845203
18863.085938	-41.193634
18906.152344	-41.308430
18949.218750	-41.910114
18992.285156	-41.972244
19035.351562	-41.661324
19078.417969	-41.821228
19121.484375	-41.862141
19164.550781	-41.393303
19207.617188	-41.572033
19250.683594	-41.734203
19293.750000	-41.621391
19336.816406	-41.768131
19379.882812	-42.217560
19422.949219	-42.007214
19466.015625	-41.701157
19509.082031	-41.712540
19552.148438	-41.726547
19595.214844	-42.164978
19638.281250	-42.361614
19681.347656	-41.906105
19724.414062	-41.518959
19767.480469	-41.774029
19810.546875	-42.344593
19853.613281	-42.606052
19896.679688	-42.414272
19939.746094	-41.759609
19982.812500	-41.808861
20025.878906	-41.810894
20068.945312	-41.931698
20112.011719	-41.806713
20155.078125	-42.190048
20198.144531	-42.467796
20241.210938	-42.095657
20284.277344	-41.922474
20327.343750	-42.336628
20370.410156	-42.050789
20413.476562	-42.008099
20456.542969	-42.124279
20499.609375	-42.493221
20542.675781	-42.844334
20585.742188	-42.535454
20628.808594	-42.574791
20671.875000	-42.634827
20714.941406	-42.592369
20758.007812	-42.591541
20801.074219	-42.641487
20844.140625	-42.844261
20887.207031	-42.889824
20930.273438	-42.323257
20973.339844	-42.309540
21016.406250	-43.299843
21059.472656	-42.995697
21102.539062	-42.782043
21145.605469	-42.912846
21188.671875	-42.796890
21231.738281	-42.636326
21274.804688	-42.836296
21317.871094	-43.005653
21360.937500	-42.806847
21404.003906	-42.868027
21447.070312	-43.162666
21490.136719	-43.687950
21533.203125	-43.819134
21576.269531	-43.882969
21619.335938	-43.659561
21662.402344	-44.197227
21705.468750	-45.022484
21748.535156	-45.052235
21791.601562	-45.480457
21834.667969	-46.231842
21877.734375	-47.471195
21920.800781	-49.462696
21963.867188	-52.580830
22006.933594	-57.071648
