Frequency (Hz)	Level (dB)
43.066406	-49.032394
86.132812	-49.570309
129.199219	-49.399529
172.265625	-46.951218
215.332031	-45.179424
258.398438	-43.949574
301.464844	-43.195126
344.531250	-42.988770
387.597656	-42.727524
430.664062	-42.353714
473.730469	-41.909992
516.796875	-41.821476
559.863281	-41.675110
602.929688	-41.116745
645.996094	-40.906506
689.062500	-40.889797
732.128906	-40.559326
775.195312	-40.381523
818.261719	-40.150711
861.328125	-40.178898
904.394531	-40.292362
947.460938	-40.152683
990.527344	-39.752247
1033.593750	-39.492752
1076.660156	-39.293072
1119.726562	-39.311691
1162.792969	-39.273823
1205.859375	-38.965282
1248.925781	-39.023354
1291.992188	-39.214493
1335.058594	-38.842937
1378.125000	-38.519032
1421.191406	-38.690300
1464.257812	-38.468540
1507.324219	-38.127834
1550.390625	-38.069248
1593.457031	-38.060314
1636.523438	-37.845589
1679.589844	-37.545277
1722.656250	-37.503609
1765.722656	-37.508255
1808.789062	-37.431175
1851.855469	-37.478451
1894.921875	-37.582027
1937.988281	-37.414059
1981.054688	-37.090153
2024.121094	-37.120865
2067.187500	-36.996075
2110.253906	-36.902634
2153.320312	-36.664711
2196.386719	-36.539143
2239.453125	-36.516769
2282.519531	-36.522938
2325.585938	-36.516109
2368.652344	-36.560032
2411.718750	-36.326576
2454.785156	-36.420441
2497.851562	-36.304787
2540.917969	-36.094933
2583.984375	-36.065826
2627.050781	-36.273438
2670.117188	-36.174343
2713.183594	-35.916576
2756.250000	-36.065212
2799.316406	-35.990013
2842.382812	-35.863342
2885.449219	-35.870617
2928.515625	-35.650177
2971.582031	-35.768764
3014.648438	-35.718357
3057.714844	-35.466793
3100.781250	-35.391079
3143.847656	-35.460522
3186.914062	-35.433578
3229.980469	-35.359840
3273.046875	-35.354084
3316.113281	-35.215893
3359.179688	-35.033085
3402.246094	-34.905994
3445.312500	-35.102596
3488.378906	-35.279293
3531.445312	-34.909042
3574.511719	-34.870476
3617.578125	-35.109531
3660.644531	-35.094261
3703.710938	-35.113525
3746.777344	-35.090546
3789.843750	-34.997200
3832.910156	-34.991531
3875.976562	-34.808014
3919.042969	-34.816132
3962.109375	-34.828568
4005.175781	-34.811314
4048.242188	-34.562244
4091.308594	-34.477032
4134.375000	-34.426392
4177.441406	-34.270164
4220.507812	-34.202831
4263.574219	-34.556099
4306.640625	-34.696766
4349.707031	-34.750210
4392.773438	-34.425140
4435.839844	-34.395473
4478.906250	-34.383930
4521.972656	-34.628761
4565.039062	-34.484524
4608.105469	-34.480518
4651.171875	-34.514214
4694.238281	-34.323380
4737.304688	-34.213821
4780.371094	-34.022076
4823.437500	-34.155437
4866.503906	-34.317993
4909.570312	-34.320751
4952.636719	-34.434189
4995.703125	-34.441334
5038.769531	-34.187157
5081.835938	-34.186859
5124.902344	-34.245056
5167.968750	-34.111000
5211.035156	-34.120567
5254.101562	-34.330757
5297.167969	-34.163319
5340.234375	-33.976482
5383.300781	-33.990479
5426.367188	-34.069557
5469.433594	-34.292904
5512.500000	-34.228531
5555.566406	-34.117092
5598.632812	-34.116989
5641.699219	-33.923901
5684.765625	-33.866337
5727.832031	-33.990517
5770.898438	-33.980782
5813.964844	-34.056355
5857.031250	-33.882973
5900.097656	-34.057552
5943.164062	-33.827942
5986.230469	-33.844120
6029.296875	-33.985882
6072.363281	-34.196655
6115.429688	-34.031796
6158.496094	-33.743389
6201.562500	-33.983433
6244.628906	-33.945080
6287.695312	-33.977139
6330.761719	-34.145710
6373.828125	-33.956169
6416.894531	-33.981400
6459.960938	-33.725712
6503.027344	-33.870083
6546.093750	-34.013081
6589.160156	-34.030006
6632.226562	-34.174858
6675.292969	-34.161491
6718.359375	-34.007999
6761.425781	-34.058098
6804.492188	-34.127842
6847.558594	-33.904743
6890.625000	-33.941113
6933.691406	-33.875713
6976.757812	-33.796478
7019.824219	-34.109962
7062.890625	-34.212269
7105.957031	-34.136379
7149.023438	-34.221466
7192.089844	-34.118324
7235.156250	-33.934971
7278.222656	-33.690948
7321.289062	-33.856361
7364.355469	-34.063004
7407.421875	-34.139366
7450.488281	-34.058411
7493.554688	-33.965939
7536.621094	-34.139450
7579.687500	-33.977360
7622.753906	-33.996994
7665.820312	-34.119434
7708.886719	-34.128101
7751.953125	-34.105026
7795.019531	-34.231789
7838.085938	-34.213436
7881.152344	-34.010181
7924.218750	-33.900494
7967.285156	-34.066551
8010.351562	-34.300079
8053.417969	-34.260902
8096.484375	-34.218536
8139.550781	-33.951641
8182.617188	-34.020569
8225.683594	-34.226028
8268.750000	-34.035213
8311.816406	-34.100491
8354.882812	-34.161301
8397.949219	-34.211292
8441.015625	-34.391178
8484.082031	-34.250076
8527.148438	-34.414783
8570.214844	-34.560287
8613.281250	-34.373272
8656.347656	-34.153221
8699.414062	-34.198677
8742.480469	-34.505157
8785.546875	-34.366154
8828.613281	-34.305775
8871.679688	-34.218109
8914.746094	-34.438187
8957.812500	-34.627861
9000.878906	-34.395195
9043.945312	-34.402401
9087.011719	-34.276657
9130.078125	-34.350407
9173.144531	-34.306778
9216.210938	-34.228611
9259.277344	-34.285934
9302.343750	-34.359390
9345.410156	-34.535522
9388.476562	-34.638306
9431.542969	-34.534317
9474.609375	-34.538029
9517.675781	-34.815708
9560.742188	-34.487095
9603.808594	-34.471584
9646.875000	-34.535164
9689.941406	-34.660473
9733.007812	-34.788044
9776.074219	-34.628807
9819.140625	-34.826290
9862.207031	-34.735252
9905.273438	-34.694393
9948.339844	-34.548180
9991.406250	-34.505108
10034.472656	-34.652233
10077.539062	-34.429630
10120.605469	-34.337643
10163.671875	-34.603462
10206.738281	-34.816422
10249.804688	-34.784275
10292.871094	-34.430855
10335.937500	-34.408939
10379.003906	-34.708332
10422.070312	-34.707932
10465.136719	-34.513008
10508.203125	-34.670132
10551.269531	-34.828060
10594.335938	-34.688675
10637.402344	-34.783894
10680.468750	-34.889011
10723.535156	-34.765759
10766.601562	-34.892876
10809.667969	-34.880795
10852.734375	-34.742256
10895.800781	-34.822186
10938.867188	-34.971066
10981.933594	-35.078114
11025.000000	-34.975086
11068.066406	-34.952171
11111.132812	-35.103092
11154.199219	-35.116016
11197.265625	-35.323082
11240.332031	-35.147030
11283.398438	-34.949860
11326.464844	-35.083599
11369.531250	-35.171219
11412.597656	-34.957893
11455.664062	-34.945908
11498.730469	-35.124081
11541.796875	-35.051579
11584.863281	-34.956982
11627.929688	-35.216896
11670.996094	-35.275978
11714.062500	-35.113087
11757.128906	-35.169994
11800.195312	-35.123806
11843.261719	-35.155807
11886.328125	-35.035622
11929.394531	-35.324467
11972.460938	-35.408989
12015.527344	-35.437531
12058.593750	-35.356140
12101.660156	-35.227077
12144.726562	-35.390312
12187.792969	-35.328144
12230.859375	-35.380707
12273.925781	-35.444454
12316.992188	-35.438660
12360.058594	-35.674374
12403.125000	-35.697987
12446.191406	-35.551395
12489.257812	-35.634232
12532.324219	-35.673283
12575.390625	-35.681217
12618.457031	-35.703743
12661.523438	-35.827534
12704.589844	-35.697315
12747.656250	-35.722927
12790.722656	-36.018894
12833.789062	-35.912174
12876.855469	-35.752136
12919.921875	-35.645027
12962.988281	-35.911278
13006.054688	-35.793934
13049.121094	-35.898346
13092.187500	-36.116138
13135.253906	-36.065865
13178.320312	-36.203323
13221.386719	-36.078979
13264.453125	-35.807087
13307.519531	-35.916477
13350.585938	-35.875435
13393.652344	-35.917561
13436.718750	-35.829460
13479.785156	-35.890602
13522.851562	-36.074482
13565.917969	-35.931610
13608.984375	-35.943371
13652.050781	-36.206692
13695.117188	-36.328938
13738.183594	-36.179863
13781.250000	-36.073875
13824.316406	-36.345207
13867.382812	-36.290741
13910.449219	-36.267796
13953.515625	-36.304138
13996.582031	-36.439865
14039.648438	-36.418594
14082.714844	-36.344685
14125.781250	-36.136219
14168.847656	-36.144073
14211.914062	-36.411221
14254.980469	-36.833027
14298.046875	-36.653873
14341.113281	-36.359039
14384.179688	-36.628464
14427.246094	-36.562965
14470.312500	-36.377735
14513.378906	-36.100746
14556.445312	-36.337742
14599.511719	-36.466904
14642.578125	-36.273838
14685.644531	-36.492943
14728.710938	-36.795521
14771.777344	-36.874531
14814.843750	-36.666023
14857.910156	-36.369949
14900.976562	-36.703102
14944.042969	-36.977959
14987.109375	-36.862286
15030.175781	-36.664322
15073.242188	-36.889072
15116.308594	-36.742592
15159.375000	-36.827831
15202.441406	-36.722874
15245.507812	-36.828053
15288.574219	-36.942265
15331.640625	-36.965714
15374.707031	-37.259884
15417.773438	-37.137867
15460.839844	-36.982197
15503.906250	-37.048435
15546.972656	-37.112068
15590.039062	-37.173168
15633.105469	-37.312691
15676.171875	-37.260139
15719.238281	-37.338657
15762.304688	-37.300484
15805.371094	-37.387367
15848.437500	-37.425774
15891.503906	-37.529240
15934.570312	-37.511868
15977.636719	-37.226185
16020.703125	-37.469742
16063.769531	-37.465553
16106.835938	-37.304562
16149.902344	-37.147705
16192.968750	-37.454227
16236.035156	-37.824394
16279.101562	-37.464291
16322.167969	-37.484402
16365.234375	-37.444218
16408.300781	-37.233463
16451.367188	-37.494564
16494.433594	-37.617668
16537.500000	-37.887833
16580.566406	-37.908085
16623.632812	-37.777279
16666.699219	-37.811390
16709.765625	-37.718445
16752.832031	-37.722004
16795.898438	-37.714127
16838.964844	-37.873405
16882.031250	-38.098381
16925.097656	-37.954071
16968.164062	-37.848709
17011.230469	-37.774864
17054.296875	-38.089401
17097.363281	-38.162548
17140.429688	-38.071579
17183.496094	-38.116085
17226.562500	-38.135303
17269.628906	-38.138077
17312.695312	-38.381577
17355.761719	-38.291367
17398.828125	-38.144890
17441.894531	-38.088360
17484.960938	-38.049553
17528.027344	-38.135490
17571.093750	-38.250381
17614.160156	-38.264362
17657.226562	-38.363354
17700.292969	-38.453617
17743.359375	-38.392540
17786.425781	-38.645672
17829.492188	-38.424492
17872.558594	-38.568974
17915.625000	-38.731403
17958.691406	-38.532227
18001.757812	-38.574245
18044.824219	-38.582729
18087.890625	-38.464218
18130.957031	-38.383137
18174.023438	-38.653168
18217.089844	-39.033844
18260.156250	-38.876884
18303.222656	-38.807232
18346.289062	-39.002361
18389.355469	-38.987076
18432.421875	-38.932297
18475.488281	-38.803867
18518.554688	-39.121273
18561.621094	-38.909817
18604.687500	-38.992199
18647.753906	-39.308380
18690.820312	-39.214508
18733.886719	-38.923634
18776.953125	-38.813801
18820.019531	-39.132618
18863.085938	-39.125179
18906.152344	-39.277805
18949.218750	-39.272511
18992.285156	-39.140499
19035.351562	-39.246666
19078.417969	-39.264526
19121.484375	-39.043652
19164.550781	-39.224247
19207.617188	-39.400856
19250.683594	-39.430378
19293.750000	-39.795052
19336.816406	-39.580318
19379.882812	-39.638065
19422.949219	-39.423485
19466.015625	-39.486759
19509.082031	-39.190453
19552.148438	-39.139812
19595.214844	-39.562599
19638.281250	-39.482014
19681.347656	-39.474564
19724.414062	-39.355553
19767.480469	-39.601410
19810.546875	-39.803886
19853.613281	-39.996056
19896.679688	-39.968414
19939.746094	-39.823830
19982.812500	-39.779613
20025.878906	-39.688042
20068.945312	-39.890701
20112.011719	-39.747528
20155.078125	-39.982510
20198.144531	-40.046539
20241.210938	-40.091774
20284.277344	-39.879269
20327.343750	-39.856331
20370.410156	-40.028812
20413.476562	-40.187294
20456.542969	-40.207863
20499.609375	-40.107048
20542.675781	-39.912163
20585.742188	-40.235966
20628.808594	-40.425224
20671.875000	-40.220020
20714.941406	-40.191811
20758.007812	-40.307541
20801.074219	-40.464737
20844.140625	-40.506329
20887.207031	-40.595268
20930.273438	-40.574623
20973.339844	-40.395359
21016.406250	-40.342247
21059.472656	-40.540462
21102.539062	-40.701771
21145.605469	-40.616131
21188.671875	-40.711876
21231.738281	-40.893787
21274.804688	-41.046898
21317.871094	-40.888409
21360.937500	-40.751247
21404.003906	-40.935810
21447.070312	-41.015667
21490.136719	-41.154568
21533.203125	-41.151237
21576.269531	-40.821636
21619.335938	-40.781090
21662.402344	-41.109795
21705.468750	-41.363956
21748.535156	-41.509884
21791.601562	-41.670639
21834.667969	-41.974049
21877.734375	-42.345387
21920.800781	-42.671268
21963.867188	-42.992687
22006.933594	-43.199192
