Frequency (Hz)	Level (dB)
43.066406	-40.187363
86.132812	-36.459404
129.199219	-35.684570
172.265625	-35.680626
215.332031	-36.363232
258.398438	-37.065514
301.464844	-37.879372
344.531250	-38.978291
387.597656	-39.813766
430.664062	-40.518013
473.730469	-40.991291
516.796875	-41.682827
559.863281	-42.335888
602.929688	-42.412724
645.996094	-42.796276
689.062500	-43.412846
732.128906	-43.658665
775.195312	-43.973335
818.261719	-44.256157
861.328125	-44.711254
904.394531	-45.273514
947.460938	-45.565720
990.527344	-45.561859
1033.593750	-45.651974
1076.660156	-45.823341
1119.726562	-46.121162
1162.792969	-46.430054
1205.859375	-46.433132
1248.925781	-46.727222
1291.992188	-47.214298
1335.058594	-47.138664
1378.125000	-47.055187
1421.191406	-47.424091
1464.257812	-47.487755
1507.324219	-47.388649
1550.390625	-47.541927
1593.457031	-47.734886
1636.523438	-47.674347
1679.589844	-47.639954
1722.656250	-47.768005
1765.722656	-47.876701
1808.789062	-47.960426
1851.855469	-48.166454
1894.921875	-48.495914
1937.988281	-48.506557
1981.054688	-48.323162
2024.121094	-48.398613
2067.187500	-48.392490
2110.253906	-48.470409
2153.320312	-48.381336
2196.386719	-48.360447
2239.453125	-48.470642
2282.519531	-48.569828
2325.585938	-48.664333
2368.652344	-48.861576
2411.718750	-48.752422
2454.785156	-48.919758
2497.851562	-48.911369
2540.917969	-48.858521
2583.984375	-48.901321
2627.050781	-49.117466
2670.117188	-49.164188
2713.183594	-49.010899
2756.250000	-49.190697
2799.316406	-49.172688
2842.382812	-49.177414
2885.449219	-49.231609
2928.515625	-49.068897
2971.582031	-49.298893
3014.648438	-49.329105
3057.714844	-49.109509
3100.781250	-49.094967
3143.847656	-49.178722
3186.914062	-49.275372
3229.980469	-49.309395
3273.046875	-49.280670
3316.113281	-49.157768
3359.179688	-49.080685
3402.246094	-49.001328
3445.312500	-49.232273
3488.378906	-49.507519
3531.445312	-49.211403
3574.511719	-49.211979
3617.578125	-49.463352
3660.644531	-49.518456
3703.710938	-49.582729
3746.777344	-49.561226
3789.843750	-49.515484
3832.910156	-49.601894
3875.976562	-49.436298
3919.042969	-49.428314
3962.109375	-49.533943
4005.175781	-49.577675
4048.242188	-49.344257
4091.308594	-49.335442
4134.375000	-49.333183
4177.441406	-49.218540
4220.507812	-49.162346
4263.574219	-49.529510
4306.640625	-49.709465
4349.707031	-49.753937
4392.773438	-49.424782
4435.839844	-49.471497
4478.906250	-49.472729
4521.972656	-49.702232
4565.039062	-49.605743
4608.105469	-49.654377
4651.171875	-49.668880
4694.238281	-49.464321
4737.304688	-49.369511
4780.371094	-49.280949
4823.437500	-49.407951
4866.503906	-49.625011
4909.570312	-49.636311
4952.636719	-49.754627
4995.703125	-49.829800
5038.769531	-49.672264
5081.835938	-49.673069
5124.902344	-49.700439
5167.968750	-49.508682
5211.035156	-49.533840
5254.101562	-49.818760
5297.167969	-49.663757
5340.234375	-49.487999
5383.300781	-49.503914
5426.367188	-49.594597
5469.433594	-49.868717
5512.500000	-49.828793
5555.566406	-49.694881
5598.632812	-49.713879
5641.699219	-49.532600
5684.765625	-49.484306
5727.832031	-49.615662
5770.898438	-49.641220
5813.964844	-49.755558
5857.031250	-49.605732
5900.097656	-49.853771
5943.164062	-49.668797
5986.230469	-49.635139
6029.296875	-49.716499
6072.363281	-49.911964
6115.429688	-49.805405
6158.496094	-49.642532
6201.562500	-49.817810
6244.628906	-49.749760
6287.695312	-49.841740
6330.761719	-50.040691
6373.828125	-49.797009
6416.894531	-49.838966
6459.960938	-49.601513
6503.027344	-49.785881
6546.093750	-49.906487
6589.160156	-49.943596
6632.226562	-50.184364
6675.292969	-50.065857
6718.359375	-49.920105
6761.425781	-49.989445
6804.492188	-50.070290
6847.558594	-49.842854
6890.625000	-49.879829
6933.691406	-49.866520
6976.757812	-49.737274
7019.824219	-50.080616
7062.890625	-50.138531
7105.957031	-50.076717
7149.023438	-50.271301
7192.089844	-50.149574
7235.156250	-49.953594
7278.222656	-49.752586
7321.289062	-49.909988
7364.355469	-50.075897
7407.421875	-50.135822
7450.488281	-50.016705
7493.554688	-50.009113
7536.621094	-50.253483
7579.687500	-50.024906
7622.753906	-50.064758
7665.820312	-50.192875
7708.886719	-50.208538
7751.953125	-50.152927
7795.019531	-50.238510
7838.085938	-50.267315
7881.152344	-50.048756
7924.218750	-49.978397
7967.285156	-50.138424
8010.351562	-50.427765
8053.417969	-50.331455
8096.484375	-50.308750
8139.550781	-50.022903
8182.617188	-50.091000
8225.683594	-50.319931
8268.750000	-50.124680
8311.816406	-50.170925
8354.882812	-50.279133
8397.949219	-50.343090
8441.015625	-50.552513
8484.082031	-50.329041
8527.148438	-50.480057
8570.214844	-50.754208
8613.281250	-50.484303
8656.347656	-50.225422
8699.414062	-50.257999
8742.480469	-50.615604
8785.546875	-50.436256
8828.613281	-50.369919
8871.679688	-50.271446
8914.746094	-50.554050
8957.812500	-50.724667
9000.878906	-50.423458
9043.945312	-50.486443
9087.011719	-50.392410
9130.078125	-50.540897
9173.144531	-50.444309
9216.210938	-50.344189
9259.277344	-50.444622
9302.343750	-50.462223
9345.410156	-50.706333
9388.476562	-50.772346
9431.542969	-50.666821
9474.609375	-50.668823
9517.675781	-50.952011
9560.742188	-50.658104
9603.808594	-50.693600
9646.875000	-50.804512
9689.941406	-50.936283
9733.007812	-50.965984
9776.074219	-50.776230
9819.140625	-51.015678
9862.207031	-50.821545
9905.273438	-50.813313
9948.339844	-50.695042
9991.406250	-50.745625
10034.472656	-50.843098
10077.539062	-50.581970
10120.605469	-50.526646
10163.671875	-50.844875
10206.738281	-51.039215
10249.804688	-50.978615
10292.871094	-50.638744
10335.937500	-50.551533
10379.003906	-50.871677
10422.070312	-50.872337
10465.136719	-50.683662
10508.203125	-50.807720
10551.269531	-50.933941
10594.335938	-50.867001
10637.402344	-50.967575
10680.468750	-51.069424
10723.535156	-50.844254
10766.601562	-51.004337
10809.667969	-51.069103
10852.734375	-50.927414
10895.800781	-50.983532
10938.867188	-51.105686
10981.933594	-51.163273
11025.000000	-51.006313
11068.066406	-50.990360
11111.132812	-51.202702
11154.199219	-51.222446
11197.265625	-51.390327
11240.332031	-51.244690
11283.398438	-51.023769
11326.464844	-51.171368
11369.531250	-51.260414
11412.597656	-51.059841
11455.664062	-50.990108
11498.730469	-51.153908
11541.796875	-51.146492
11584.863281	-51.059090
11627.929688	-51.345127
11670.996094	-51.427620
11714.062500	-51.300968
11757.128906	-51.368961
11800.195312	-51.177525
11843.261719	-51.249481
11886.328125	-51.180416
11929.394531	-51.343548
11972.460938	-51.375416
12015.527344	-51.520813
12058.593750	-51.468369
12101.660156	-51.247715
12144.726562	-51.459736
12187.792969	-51.390396
12230.859375	-51.418980
12273.925781	-51.476795
12316.992188	-51.484661
12360.058594	-51.606907
12403.125000	-51.640343
12446.191406	-51.568821
12489.257812	-51.660671
12532.324219	-51.602070
12575.390625	-51.569469
12618.457031	-51.658215
12661.523438	-51.772575
12704.589844	-51.623322
12747.656250	-51.740643
12790.722656	-52.064629
12833.789062	-51.980991
12876.855469	-51.784843
12919.921875	-51.645756
12962.988281	-51.917625
13006.054688	-51.746098
13049.121094	-51.886543
13092.187500	-52.038708
13135.253906	-51.892288
13178.320312	-52.110676
13221.386719	-52.115028
13264.453125	-51.782906
13307.519531	-51.824894
13350.585938	-51.727055
13393.652344	-51.784813
13436.718750	-51.693329
13479.785156	-51.755310
13522.851562	-51.993958
13565.917969	-51.801231
13608.984375	-51.794167
13652.050781	-52.048153
13695.117188	-52.117573
13738.183594	-51.978794
13781.250000	-51.922298
13824.316406	-52.160553
13867.382812	-52.121807
13910.449219	-52.162724
13953.515625	-52.130573
13996.582031	-52.220612
14039.648438	-52.226063
14082.714844	-52.200523
14125.781250	-51.963795
14168.847656	-51.912418
14211.914062	-52.164337
14254.980469	-52.591377
14298.046875	-52.461002
14341.113281	-52.135517
14384.179688	-52.390511
14427.246094	-52.303131
14470.312500	-52.121521
14513.378906	-51.796890
14556.445312	-51.986778
14599.511719	-52.055141
14642.578125	-51.918388
14685.644531	-52.173553
14728.710938	-52.492191
14771.777344	-52.529987
14814.843750	-52.416191
14857.910156	-52.055534
14900.976562	-52.324100
14944.042969	-52.564739
14987.109375	-52.425930
15030.175781	-52.223064
15073.242188	-52.486866
15116.308594	-52.505909
15159.375000	-52.638611
15202.441406	-52.400040
15245.507812	-52.362648
15288.574219	-52.409184
15331.640625	-52.485374
15374.707031	-52.862446
15417.773438	-52.812885
15460.839844	-52.644855
15503.906250	-52.608284
15546.972656	-52.576324
15590.039062	-52.555294
15633.105469	-52.824654
15676.171875	-52.803425
15719.238281	-52.817242
15762.304688	-52.791550
15805.371094	-52.863800
15848.437500	-52.887897
15891.503906	-52.901672
15934.570312	-53.050911
15977.636719	-52.837536
16020.703125	-52.969887
16063.769531	-52.893822
16106.835938	-52.779564
16149.902344	-52.646515
16192.968750	-52.890034
16236.035156	-53.142258
16279.101562	-52.935246
16322.167969	-52.988819
16365.234375	-52.896980
16408.300781	-52.772205
16451.367188	-52.925858
16494.433594	-52.899460
16537.500000	-53.084042
16580.566406	-53.188210
16623.632812	-53.103104
16666.699219	-53.256546
16709.765625	-53.112465
16752.832031	-53.195515
16795.898438	-53.136539
16838.964844	-53.293724
16882.031250	-53.486813
16925.097656	-53.310730
16968.164062	-53.263096
17011.230469	-53.146717
17054.296875	-53.287327
17097.363281	-53.370083
17140.429688	-53.365593
17183.496094	-53.418545
17226.562500	-53.473732
17269.628906	-53.548111
17312.695312	-53.731499
17355.761719	-53.608974
17398.828125	-53.361015
17441.894531	-53.392113
17484.960938	-53.339443
17528.027344	-53.414352
17571.093750	-53.434315
17614.160156	-53.442051
17657.226562	-53.533150
17700.292969	-53.624859
17743.359375	-53.564125
17786.425781	-53.762539
17829.492188	-53.575676
17872.558594	-53.827698
17915.625000	-53.889305
17958.691406	-53.725903
18001.757812	-53.743183
18044.824219	-53.681496
18087.890625	-53.515530
18130.957031	-53.308060
18174.023438	-53.698612
18217.089844	-54.095444
18260.156250	-54.025593
18303.222656	-53.940144
18346.289062	-54.057007
18389.355469	-54.013756
18432.421875	-53.954132
18475.488281	-53.883694
18518.554688	-54.234375
18561.621094	-54.022236
18604.687500	-54.017033
18647.753906	-54.374485
18690.820312	-54.381008
18733.886719	-54.011303
18776.953125	-53.950649
18820.019531	-54.311661
18863.085938	-54.253242
18906.152344	-54.389412
18949.218750	-54.362141
18992.285156	-54.198074
19035.351562	-54.249599
19078.417969	-54.225555
19121.484375	-53.992321
19164.550781	-54.177917
19207.617188	-54.351925
19250.683594	-54.442539
19293.750000	-54.661674
19336.816406	-54.549950
19379.882812	-54.603725
19422.949219	-54.375408
19466.015625	-54.491394
19509.082031	-54.200985
19552.148438	-54.081291
19595.214844	-54.558891
19638.281250	-54.481670
19681.347656	-54.452526
19724.414062	-54.339298
19767.480469	-54.582386
19810.546875	-54.599617
19853.613281	-54.863522
19896.679688	-54.942059
19939.746094	-54.668640
19982.812500	-54.459602
20025.878906	-54.579136
20068.945312	-54.692818
20112.011719	-54.600559
20155.078125	-54.972229
20198.144531	-55.107449
20241.210938	-55.145164
20284.277344	-54.780178
20327.343750	-54.914898
20370.410156	-55.135742
20413.476562	-55.149567
20456.542969	-55.158073
20499.609375	-55.121864
20542.675781	-54.925816
20585.742188	-55.206142
20628.808594	-55.234135
20671.875000	-55.003811
20714.941406	-55.029255
20758.007812	-55.093605
20801.074219	-55.234657
20844.140625	-55.256931
20887.207031	-55.387234
20930.273438	-55.266140
20973.339844	-55.085396
21016.406250	-55.109161
21059.472656	-55.226662
21102.539062	-55.331337
21145.605469	-55.366859
21188.671875	-55.643723
21231.738281	-55.698742
21274.804688	-55.641647
21317.871094	-55.641502
21360.937500	-55.596996
21404.003906	-55.602753
21447.070312	-55.489780
21490.136719	-55.702339
21533.203125	-55.845409
21576.269531	-55.561050
21619.335938	-55.614670
21662.402344	-55.854408
21705.468750	-56.137245
21748.535156	-56.175133
21791.601562	-56.347790
21834.667969	-56.674072
21877.734375	-56.999466
21920.800781	-57.292912
21963.867188	-57.730080
22006.933594	-57.997055
