Frequency (Hz)	Level (dB)
43.066406	-30.924736
86.132812	-28.624760
129.199219	-29.308130
172.265625	-29.063133
215.332031	-28.139444
258.398438	-28.459284
301.464844	-27.352594
344.531250	-27.572906
387.597656	-27.689875
430.664062	-27.180826
473.730469	-28.638216
516.796875	-28.278873
559.863281	-28.509430
602.929688	-28.571705
645.996094	-28.436306
689.062500	-29.136631
732.128906	-27.904919
775.195312	-29.104155
818.261719	-28.815914
861.328125	-26.518755
904.394531	-28.232840
947.460938	-28.234373
990.527344	-28.438486
1033.593750	-27.307096
1076.660156	-23.772465
1119.726562	-24.612030
1162.792969	-23.499348
1205.859375	-22.420250
1248.925781	-21.450983
1291.992188	-19.776331
1335.058594	-20.539677
1378.125000	-19.241362
1421.191406	-20.592901
1464.257812	-20.410742
1507.324219	-20.243450
1550.390625	-20.559338
1593.457031	-18.565741
1636.523438	-16.047649
1679.589844	-15.042072
1722.656250	-17.946808
1765.722656	-19.838879
1808.789062	-20.677746
1851.855469	-21.668549
1894.921875	-21.212982
1937.988281	-22.359957
1981.054688	-23.211384
2024.121094	-22.233465
2067.187500	-24.645353
2110.253906	-24.986147
2153.320312	-25.722801
2196.386719	-26.427652
2239.453125	-25.500612
2282.519531	-27.505548
2325.585938	-27.644621
2368.652344	-30.458721
2411.718750	-31.274248
2454.785156	-29.912304
2497.851562	-31.494001
2540.917969	-31.052481
2583.984375	-31.009142
2627.050781	-31.577034
2670.117188	-32.376842
2713.183594	-33.777302
2756.250000	-33.126171
2799.316406	-33.545349
2842.382812	-34.074589
2885.449219	-34.426266
2928.515625	-35.931274
2971.582031	-35.367512
3014.648438	-36.097710
3057.714844	-35.949013
3100.781250	-34.579323
3143.847656	-36.342705
3186.914062	-36.670078
3229.980469	-36.581551
3273.046875	-36.487507
3316.113281	-35.591518
3359.179688	-36.902306
3402.246094	-36.925320
3445.312500	-37.615353
3488.378906	-37.416409
3531.445312	-36.673374
3574.511719	-37.602520
3617.578125	-37.142971
3660.644531	-38.444721
3703.710938	-37.959980
3746.777344	-37.488770
3789.843750	-37.709709
3832.910156	-36.490749
3875.976562	-38.610817
3919.042969	-38.360722
3962.109375	-37.237103
4005.175781	-37.758041
4048.242188	-37.509277
4091.308594	-38.389904
4134.375000	-37.926426
4177.441406	-38.879250
4220.507812	-39.234879
4263.574219	-38.327930
4306.640625	-38.658604
4349.707031	-37.703243
4392.773438	-38.943935
4435.839844	-39.528561
4478.906250	-37.918053
4521.972656	-39.238312
4565.039062	-38.866188
4608.105469	-38.568470
4651.171875	-38.684559
4694.238281	-38.714828
4737.304688	-40.352844
4780.371094	-39.958771
4823.437500	-40.712070
4866.503906	-41.025219
4909.570312	-41.577015
4952.636719	-42.066730
4995.703125	-40.467602
5038.769531	-40.865921
5081.835938	-40.889339
5124.902344	-41.390656
5167.968750	-42.226059
5211.035156	-41.412861
5254.101562	-41.991444
5297.167969	-42.044193
5340.234375	-41.740211
5383.300781	-42.867393
5426.367188	-42.747303
5469.433594	-43.412415
5512.500000	-43.196110
5555.566406	-43.384205
5598.632812	-44.056355
5641.699219	-43.510815
5684.765625	-43.939251
5727.832031	-43.961933
5770.898438	-44.264149
5813.964844	-44.948067
5857.031250	-44.812649
5900.097656	-46.156155
5943.164062	-45.693718
5986.230469	-45.281803
6029.296875	-45.923607
6072.363281	-45.891529
6115.429688	-45.717205
6158.496094	-45.216568
6201.562500	-46.836746
6244.628906	-46.952194
6287.695312	-46.197765
6330.761719	-47.283962
6373.828125	-46.865749
6416.894531	-46.476017
6459.960938	-47.088387
6503.027344	-47.625622
6546.093750	-48.478363
6589.160156	-47.669960
6632.226562	-48.580227
6675.292969	-49.014416
6718.359375	-48.699432
6761.425781	-48.940197
6804.492188	-48.318100
6847.558594	-49.519897
6890.625000	-49.523338
6933.691406	-49.414371
6976.757812	-49.885456
7019.824219	-48.842007
7062.890625	-50.011990
7105.957031	-50.501030
7149.023438	-50.635693
7192.089844	-50.868721
7235.156250	-49.921497
7278.222656	-50.806797
7321.289062	-50.553558
7364.355469	-50.794079
7407.421875	-51.985767
7450.488281	-51.248775
7493.554688	-52.353966
7536.621094	-52.234482
7579.687500	-51.892937
7622.753906	-52.129143
7665.820312	-51.882343
7708.886719	-52.737137
7751.953125	-52.614128
7795.019531	-52.565140
7838.085938	-53.203896
7881.152344	-52.795193
7924.218750	-53.436436
7967.285156	-53.458675
8010.351562	-53.177166
8053.417969	-53.885277
8096.484375	-53.625069
8139.550781	-54.436405
8182.617188	-54.134274
8225.683594	-54.335430
8268.750000	-54.672955
8311.816406	-54.844574
8354.882812	-55.156452
8397.949219	-54.494629
8441.015625	-55.208958
8484.082031	-55.411179
8527.148438	-55.403667
8570.214844	-55.946720
8613.281250	-55.522240
8656.347656	-55.624050
8699.414062	-55.724247
8742.480469	-56.157093
8785.546875	-57.252518
8828.613281	-56.890465
8871.679688	-56.855171
8914.746094	-56.774906
8957.812500	-57.250290
9000.878906	-57.286175
9043.945312	-56.364101
9087.011719	-57.599834
9130.078125	-57.735744
9173.144531	-57.579884
9216.210938	-57.933979
9259.277344	-57.792328
9302.343750	-58.351227
9345.410156	-58.158588
9388.476562	-58.801598
9431.542969	-59.173294
9474.609375	-58.850979
9517.675781	-59.144726
9560.742188	-58.677483
9603.808594	-58.939648
9646.875000	-59.317959
9689.941406	-59.193520
9733.007812	-60.003441
9776.074219	-59.735092
9819.140625	-60.080303
9862.207031	-60.424938
9905.273438	-59.865833
9948.339844	-60.439846
9991.406250	-60.450005
10034.472656	-60.319874
10077.539062	-60.595566
10120.605469	-60.712303
10163.671875	-61.030952
10206.738281	-60.697487
10249.804688	-60.756378
10292.871094	-61.284660
10335.937500	-61.371105
10379.003906	-61.741859
10422.070312	-61.094994
10465.136719	-61.853455
10508.203125	-62.361691
10551.269531	-61.936184
10594.335938	-62.461643
10637.402344	-62.349411
10680.468750	-62.816010
10723.535156	-63.081268
10766.601562	-62.606548
10809.667969	-63.104305
10852.734375	-62.966148
10895.800781	-63.339233
10938.867188	-63.480709
10981.933594	-63.078499
11025.000000	-63.774590
11068.066406	-63.738083
11111.132812	-64.373611
11154.199219	-64.253502
11197.265625	-63.911617
11240.332031	-64.287598
11283.398438	-63.893688
11326.464844	-64.525024
11369.531250	-64.710693
11412.597656	-64.664139
11455.664062	-65.288040
11498.730469	-64.748734
11541.796875	-64.711578
11584.863281	-64.687607
11627.929688	-65.265190
11670.996094	-65.522339
11714.062500	-65.016190
11757.128906	-65.750702
11800.195312	-66.035324
11843.261719	-65.657158
11886.328125	-65.809952
11929.394531	-65.878441
11972.460938	-66.428619
12015.527344	-66.306244
12058.593750	-66.578781
12101.660156	-66.321533
12144.726562	-66.570732
12187.792969	-66.788712
12230.859375	-66.795967
12273.925781	-66.675453
12316.992188	-67.200340
12360.058594	-67.540077
12403.125000	-67.620705
12446.191406	-67.452782
12489.257812	-67.205528
12532.324219	-67.326973
12575.390625	-67.549622
12618.457031	-67.745178
12661.523438	-67.439484
12704.589844	-67.566780
12747.656250	-67.780830
12790.722656	-68.145569
12833.789062	-68.373985
12876.855469	-68.280876
12919.921875	-69.005608
12962.988281	-69.084686
13006.054688	-68.591705
13049.121094	-69.480232
13092.187500	-68.759064
13135.253906	-68.707336
13178.320312	-69.134598
13221.386719	-69.100143
13264.453125	-69.498062
13307.519531	-69.518692
13350.585938	-69.597778
13393.652344	-69.377426
13436.718750	-69.291016
13479.785156	-69.575768
13522.851562	-69.818748
13565.917969	-70.146751
13608.984375	-69.923294
13652.050781	-69.969292
13695.117188	-70.465622
13738.183594	-70.332703
13781.250000	-70.058380
13824.316406	-69.919151
13867.382812	-70.438744
13910.449219	-70.565506
13953.515625	-69.763260
13996.582031	-70.605789
14039.648438	-70.805801
14082.714844	-70.831726
14125.781250	-71.382874
14168.847656	-71.144974
14211.914062	-71.444717
14254.980469	-71.379776
14298.046875	-71.435867
14341.113281	-71.651848
14384.179688	-71.297707
14427.246094	-71.672043
14470.312500	-71.446945
14513.378906	-71.408638
14556.445312	-71.381149
14599.511719	-71.414551
14642.578125	-71.957581
14685.644531	-72.069084
14728.710938	-72.085701
14771.777344	-72.227509
14814.843750	-72.073158
14857.910156	-72.177666
14900.976562	-72.376907
14944.042969	-72.525970
14987.109375	-72.466217
15030.175781	-72.822861
15073.242188	-73.025864
15116.308594	-72.638786
15159.375000	-72.743347
15202.441406	-73.130562
15245.507812	-73.037056
15288.574219	-72.674629
15331.640625	-73.057327
15374.707031	-73.463455
15417.773438	-73.354492
15460.839844	-73.582352
15503.906250	-73.733871
15546.972656	-73.658112
15590.039062	-73.656006
15633.105469	-73.810951
15676.171875	-73.832336
15719.238281	-74.064629
15762.304688	-73.944221
15805.371094	-74.073425
15848.437500	-73.951500
15891.503906	-74.030930
15934.570312	-74.028664
15977.636719	-74.406952
16020.703125	-74.418045
16063.769531	-74.569054
16106.835938	-74.365463
16149.902344	-73.972794
16192.968750	-74.304726
16236.035156	-74.525948
16279.101562	-74.138069
16322.167969	-74.135551
16365.234375	-74.665108
16408.300781	-74.866600
16451.367188	-74.533867
16494.433594	-74.634613
16537.500000	-74.688614
16580.566406	-74.702103
16623.632812	-74.962112
16666.699219	-75.152802
16709.765625	-75.307129
16752.832031	-75.454170
16795.898438	-74.952271
16838.964844	-74.541313
16882.031250	-74.909424
16925.097656	-75.491196
16968.164062	-75.516464
17011.230469	-75.493065
17054.296875	-75.436172
17097.363281	-75.990273
17140.429688	-75.893898
17183.496094	-75.750374
17226.562500	-75.987862
17269.628906	-75.944420
17312.695312	-76.435936
17355.761719	-76.432892
17398.828125	-75.979691
17441.894531	-75.980354
17484.960938	-76.238358
17528.027344	-76.213661
17571.093750	-76.108498
17614.160156	-76.251915
17657.226562	-76.352730
17700.292969	-75.772392
17743.359375	-76.119316
17786.425781	-76.737793
17829.492188	-76.760681
17872.558594	-76.052528
17915.625000	-76.606949
17958.691406	-77.019867
18001.757812	-76.733383
18044.824219	-76.769608
18087.890625	-76.946449
18130.957031	-76.822876
18174.023438	-77.003899
18217.089844	-77.017563
18260.156250	-76.779045
18303.222656	-76.884224
18346.289062	-76.880669
18389.355469	-76.815071
18432.421875	-76.728348
18475.488281	-76.849861
18518.554688	-77.232002
18561.621094	-77.079155
18604.687500	-76.908508
18647.753906	-77.458908
18690.820312	-78.037376
18733.886719	-77.660522
18776.953125	-77.624008
18820.019531	-77.872498
18863.085938	-78.134048
18906.152344	-77.744453
18949.218750	-77.282486
18992.285156	-77.569618
19035.351562	-77.971474
19078.417969	-77.950165
19121.484375	-77.624817
19164.550781	-77.795738
19207.617188	-78.049156
19250.683594	-78.075539
19293.750000	-77.905502
19336.816406	-77.782166
19379.882812	-77.780151
19422.949219	-77.931931
19466.015625	-78.183327
19509.082031	-78.177917
19552.148438	-78.475784
19595.214844	-78.246277
19638.281250	-78.435631
19681.347656	-78.935089
19724.414062	-78.528389
19767.480469	-78.605469
19810.546875	-78.292542
19853.613281	-78.410934
19896.679688	-78.292366
19939.746094	-78.844704
19982.812500	-78.986336
20025.878906	-78.617165
20068.945312	-79.011772
20112.011719	-79.223488
20155.078125	-79.632248
20198.144531	-79.158798
20241.210938	-78.850212
20284.277344	-78.974297
20327.343750	-79.225037
20370.410156	-79.403214
20413.476562	-79.333450
20456.542969	-79.205971
20499.609375	-79.598038
20542.675781	-79.397224
20585.742188	-79.061172
20628.808594	-79.146538
20671.875000	-79.624992
20714.941406	-79.347733
20758.007812	-79.093742
20801.074219	-79.151581
20844.140625	-79.395767
20887.207031	-79.621536
20930.273438	-79.435310
20973.339844	-79.517731
21016.406250	-79.897766
21059.472656	-79.738792
21102.539062	-79.786461
21145.605469	-79.902420
21188.671875	-80.330505
21231.738281	-79.860916
21274.804688	-79.707840
21317.871094	-79.725822
21360.937500	-79.902046
21404.003906	-80.080185
21447.070312	-80.497528
21490.136719	-81.028320
21533.203125	-80.570229
21576.269531	-80.246033
21619.335938	-80.493256
21662.402344	-80.536400
21705.468750	-80.183174
21748.535156	-79.990395
21791.601562	-80.467140
21834.667969	-81.084763
21877.734375	-81.294174
21920.800781	-81.035156
21963.867188	-81.163635
22006.933594	-81.563683
