Frequency (Hz)	Level (dB)
43.066406	-16.021357
86.132812	-13.544399
129.199219	-12.720645
172.265625	-12.750071
215.332031	-13.120035
258.398438	-13.383302
301.464844	-13.766263
344.531250	-14.453654
387.597656	-14.935265
430.664062	-15.550647
473.730469	-15.864163
516.796875	-16.572891
559.863281	-17.145969
602.929688	-17.224909
645.996094	-17.660305
689.062500	-18.046417
732.128906	-18.197447
775.195312	-18.580215
818.261719	-19.082972
861.328125	-19.533819
904.394531	-19.847618
947.460938	-19.897337
990.527344	-20.108601
1033.593750	-20.168776
1076.660156	-20.110062
1119.726562	-20.439470
1162.792969	-20.323772
1205.859375	-20.990599
1248.925781	-21.520866
1291.992188	-21.969437
1335.058594	-21.629559
1378.125000	-21.550837
1421.191406	-21.913836
1464.257812	-22.232027
1507.324219	-22.350824
1550.390625	-22.628366
1593.457031	-22.792217
1636.523438	-23.167059
1679.589844	-23.075134
1722.656250	-22.827141
1765.722656	-23.349693
1808.789062	-23.670238
1851.855469	-23.586926
1894.921875	-24.392406
1937.988281	-24.220537
1981.054688	-23.940437
2024.121094	-24.149309
2067.187500	-24.264864
2110.253906	-24.644516
2153.320312	-24.754152
2196.386719	-24.919035
2239.453125	-24.580257
2282.519531	-24.658613
2325.585938	-24.712482
2368.652344	-24.796551
2411.718750	-25.490740
2454.785156	-25.915499
2497.851562	-25.758272
2540.917969	-25.549566
2583.984375	-26.060850
2627.050781	-26.308893
2670.117188	-26.206612
2713.183594	-26.106995
2756.250000	-26.549585
2799.316406	-26.646435
2842.382812	-26.699015
2885.449219	-26.795671
2928.515625	-26.732857
2971.582031	-27.325695
3014.648438	-27.812340
3057.714844	-27.773258
3100.781250	-27.647533
3143.847656	-27.608957
3186.914062	-27.610605
3229.980469	-27.826508
3273.046875	-28.018770
3316.113281	-27.793444
3359.179688	-28.414944
3402.246094	-28.642935
3445.312500	-28.956844
3488.378906	-28.700609
3531.445312	-28.448969
3574.511719	-28.837931
3617.578125	-28.933317
3660.644531	-28.873640
3703.710938	-28.742369
3746.777344	-29.301966
3789.843750	-29.417360
3832.910156	-29.485310
3875.976562	-29.450470
3919.042969	-29.693333
3962.109375	-30.364151
4005.175781	-30.285984
4048.242188	-30.268387
4091.308594	-30.640047
4134.375000	-30.418661
4177.441406	-30.274485
4220.507812	-30.441555
4263.574219	-30.590626
4306.640625	-30.869471
4349.707031	-30.796968
4392.773438	-31.178141
4435.839844	-31.088276
4478.906250	-30.619730
4521.972656	-30.961489
4565.039062	-31.661840
4608.105469	-31.741074
4651.171875	-31.987059
4694.238281	-32.025173
4737.304688	-31.689896
4780.371094	-31.588041
4823.437500	-32.106335
4866.503906	-32.280880
4909.570312	-32.253929
4952.636719	-32.715347
4995.703125	-32.875736
5038.769531	-32.897461
5081.835938	-32.739388
5124.902344	-32.776123
5167.968750	-32.878815
5211.035156	-32.680485
5254.101562	-33.479877
5297.167969	-33.212006
5340.234375	-33.172714
5383.300781	-33.209129
5426.367188	-33.416458
5469.433594	-33.521542
5512.500000	-33.853489
5555.566406	-34.000057
5598.632812	-34.120346
5641.699219	-34.084656
5684.765625	-34.037586
5727.832031	-33.579693
5770.898438	-33.786167
5813.964844	-34.132404
5857.031250	-33.678074
5900.097656	-33.779831
5943.164062	-34.080643
5986.230469	-34.342556
6029.296875	-34.498787
6072.363281	-34.752914
6115.429688	-35.025703
6158.496094	-35.111088
6201.562500	-35.511658
6244.628906	-35.394211
6287.695312	-35.144524
6330.761719	-35.517147
6373.828125	-35.473846
6416.894531	-35.807030
6459.960938	-35.745045
6503.027344	-35.980728
6546.093750	-36.053749
6589.160156	-36.200886
6632.226562	-36.119961
6675.292969	-35.965729
6718.359375	-35.772942
6761.425781	-36.047260
6804.492188	-36.709724
6847.558594	-36.374516
6890.625000	-36.620781
6933.691406	-37.051811
6976.757812	-36.638378
7019.824219	-36.624928
7062.890625	-36.851524
7105.957031	-37.418743
7149.023438	-37.496307
7192.089844	-37.368969
7235.156250	-37.343216
7278.222656	-37.277401
7321.289062	-37.322685
7364.355469	-37.486038
7407.421875	-37.880356
7450.488281	-37.679062
7493.554688	-37.964111
7536.621094	-37.720860
7579.687500	-38.004772
7622.753906	-38.162075
7665.820312	-38.054646
7708.886719	-38.185844
7751.953125	-37.746231
7795.019531	-37.907406
7838.085938	-38.428444
7881.152344	-38.780895
7924.218750	-38.922447
7967.285156	-38.754162
8010.351562	-38.708866
8053.417969	-38.827637
8096.484375	-38.757820
8139.550781	-38.767365
8182.617188	-38.964451
8225.683594	-39.292862
8268.750000	-39.502686
8311.816406	-39.630833
8354.882812	-39.402206
8397.949219	-39.690029
8441.015625	-39.407078
8484.082031	-39.515003
8527.148438	-39.706715
8570.214844	-39.509621
8613.281250	-39.810936
8656.347656	-40.186737
8699.414062	-40.135532
8742.480469	-40.069218
8785.546875	-39.623711
8828.613281	-39.959183
8871.679688	-40.666519
8914.746094	-40.620415
8957.812500	-40.264622
9000.878906	-40.792927
9043.945312	-41.152798
9087.011719	-40.858440
9130.078125	-40.839081
9173.144531	-40.861729
9216.210938	-40.648373
9259.277344	-41.096046
9302.343750	-41.104149
9345.410156	-40.930771
9388.476562	-41.553619
9431.542969	-41.429401
9474.609375	-41.044792
9517.675781	-41.656765
9560.742188	-41.816479
9603.808594	-42.158119
9646.875000	-42.214340
9689.941406	-42.123302
9733.007812	-41.880753
9776.074219	-41.977715
9819.140625	-42.656521
9862.207031	-42.693832
9905.273438	-42.588558
9948.339844	-42.187290
9991.406250	-42.141438
10034.472656	-41.821327
10077.539062	-41.818733
10120.605469	-42.222733
10163.671875	-42.371281
10206.738281	-42.469395
10249.804688	-42.692516
10292.871094	-42.743385
10335.937500	-43.095432
10379.003906	-43.003510
10422.070312	-43.222988
10465.136719	-42.662067
10508.203125	-42.461369
10551.269531	-42.688080
10594.335938	-42.989117
10637.402344	-43.632301
10680.468750	-43.656719
10723.535156	-43.669163
10766.601562	-43.593147
10809.667969	-43.742973
10852.734375	-43.702850
10895.800781	-43.679016
10938.867188	-43.975571
10981.933594	-43.983017
11025.000000	-44.141666
11068.066406	-44.413666
11111.132812	-44.557205
11154.199219	-44.815918
11197.265625	-44.664177
11240.332031	-44.382771
11283.398438	-44.366463
11326.464844	-44.705376
11369.531250	-44.741730
11412.597656	-44.894093
11455.664062	-45.056690
11498.730469	-44.941437
11541.796875	-44.892834
11584.863281	-44.934921
11627.929688	-45.041565
11670.996094	-45.197796
11714.062500	-45.395058
11757.128906	-45.110409
11800.195312	-45.309364
11843.261719	-45.679276
11886.328125	-45.374256
11929.394531	-45.694679
11972.460938	-45.907242
12015.527344	-45.421436
12058.593750	-45.753048
12101.660156	-45.843529
12144.726562	-45.920528
12187.792969	-46.093369
12230.859375	-45.986362
12273.925781	-45.877388
12316.992188	-46.395538
12360.058594	-46.574230
12403.125000	-45.918858
12446.191406	-45.836586
12489.257812	-46.109734
12532.324219	-46.654453
12575.390625	-46.383270
12618.457031	-46.227604
12661.523438	-46.778282
12704.589844	-47.118805
12747.656250	-46.958569
12790.722656	-46.670059
12833.789062	-46.475624
12876.855469	-46.524315
12919.921875	-46.528580
12962.988281	-46.611347
13006.054688	-46.926964
13049.121094	-47.806168
13092.187500	-47.267189
13135.253906	-47.363022
13178.320312	-47.796215
13221.386719	-47.399269
13264.453125	-48.109730
13307.519531	-48.030262
13350.585938	-47.619080
13393.652344	-47.912231
13436.718750	-47.992348
13479.785156	-48.216984
13522.851562	-48.554482
13565.917969	-48.258240
13608.984375	-47.931400
13652.050781	-48.301437
13695.117188	-48.362411
13738.183594	-47.943012
13781.250000	-47.996391
13824.316406	-48.489010
13867.382812	-48.529171
13910.449219	-48.768490
13953.515625	-49.338982
13996.582031	-49.156155
14039.648438	-48.454536
14082.714844	-48.667824
14125.781250	-48.824116
14168.847656	-48.968597
14211.914062	-48.884327
14254.980469	-48.839703
14298.046875	-49.158604
14341.113281	-49.375015
14384.179688	-49.166103
14427.246094	-49.689178
14470.312500	-49.629772
14513.378906	-48.932072
14556.445312	-49.408497
14599.511719	-49.259232
14642.578125	-49.385506
14685.644531	-49.637703
14728.710938	-49.634308
14771.777344	-49.529915
14814.843750	-49.450607
14857.910156	-49.923054
14900.976562	-50.072292
14944.042969	-49.554443
14987.109375	-49.834393
15030.175781	-50.085976
15073.242188	-50.019810
15116.308594	-49.943707
15159.375000	-50.276039
15202.441406	-50.209042
15245.507812	-50.157043
15288.574219	-50.226437
15331.640625	-50.195278
15374.707031	-50.428268
15417.773438	-50.851166
15460.839844	-50.395077
15503.906250	-50.359367
15546.972656	-50.830204
15590.039062	-50.880783
15633.105469	-50.872944
15676.171875	-50.993206
15719.238281	-50.647068
15762.304688	-50.733768
15805.371094	-51.424698
15848.437500	-50.699593
15891.503906	-50.891087
15934.570312	-51.492695
15977.636719	-51.311523
16020.703125	-51.248760
16063.769531	-51.227600
16106.835938	-50.969559
16149.902344	-51.205223
16192.968750	-51.590305
16236.035156	-51.740997
16279.101562	-51.669350
16322.167969	-51.771656
16365.234375	-51.519024
16408.300781	-51.686523
16451.367188	-51.929008
16494.433594	-51.800701
16537.500000	-51.868153
16580.566406	-51.961895
16623.632812	-51.813625
16666.699219	-51.909447
16709.765625	-51.936226
16752.832031	-52.522305
16795.898438	-52.217350
16838.964844	-52.151512
16882.031250	-52.120129
16925.097656	-52.345871
16968.164062	-52.118340
17011.230469	-51.616337
17054.296875	-51.869438
17097.363281	-52.335278
17140.429688	-52.601700
17183.496094	-53.165390
17226.562500	-52.661606
17269.628906	-52.200401
17312.695312	-52.508213
17355.761719	-53.027298
17398.828125	-52.751587
17441.894531	-52.694942
17484.960938	-53.181332
17528.027344	-53.129982
17571.093750	-52.774700
17614.160156	-52.599159
17657.226562	-52.636284
17700.292969	-52.942253
17743.359375	-53.135128
17786.425781	-53.263290
17829.492188	-53.271755
17872.558594	-53.291363
17915.625000	-53.150646
17958.691406	-53.358170
18001.757812	-53.019764
18044.824219	-53.104900
18087.890625	-53.638180
18130.957031	-53.635624
18174.023438	-53.089413
18217.089844	-52.985565
18260.156250	-53.344738
18303.222656	-53.670723
18346.289062	-53.874168
18389.355469	-54.095573
18432.421875	-53.874874
18475.488281	-53.674793
18518.554688	-53.740082
18561.621094	-54.122486
18604.687500	-53.958679
18647.753906	-53.908867
18690.820312	-53.362411
18733.886719	-52.305973
18776.953125	-53.302681
18820.019531	-53.676998
18863.085938	-54.040779
18906.152344	-54.377739
18949.218750	-54.262558
18992.285156	-54.155342
19035.351562	-54.275105
19078.417969	-54.604313
19121.484375	-54.621086
19164.550781	-54.615662
19207.617188	-54.482521
19250.683594	-54.793137
19293.750000	-54.493256
19336.816406	-54.530434
19379.882812	-55.066483
19422.949219	-55.035156
19466.015625	-54.160080
19509.082031	-54.523136
19552.148438	-55.274773
19595.214844	-55.542301
19638.281250	-55.544235
19681.347656	-54.963581
19724.414062	-55.308212
19767.480469	-55.110008
19810.546875	-54.636551
19853.613281	-55.193504
19896.679688	-55.323795
19939.746094	-55.130150
19982.812500	-55.028091
20025.878906	-54.986649
20068.945312	-54.811501
20112.011719	-55.410763
20155.078125	-55.764191
20198.144531	-55.839592
20241.210938	-55.483360
20284.277344	-55.428886
20327.343750	-55.726513
20370.410156	-55.345646
20413.476562	-55.343506
20456.542969	-55.767551
20499.609375	-55.816265
20542.675781	-55.559830
20585.742188	-55.419876
20628.808594	-55.644478
20671.875000	-55.704769
20714.941406	-56.225929
20758.007812	-56.169559
20801.074219	-56.238918
20844.140625	-56.325069
20887.207031	-56.402061
20930.273438	-56.035236
20973.339844	-55.910709
21016.406250	-55.782490
21059.472656	-55.996990
21102.539062	-56.351219
21145.605469	-56.288704
21188.671875	-56.525204
21231.738281	-56.929947
21274.804688	-56.983330
21317.871094	-56.970718
21360.937500	-56.721596
21404.003906	-56.831974
21447.070312	-57.081017
21490.136719	-56.553448
21533.203125	-56.765705
21576.269531	-57.339489
21619.335938	-57.174305
21662.402344	-56.761688
21705.468750	-56.764511
21748.535156	-56.784595
21791.601562	-56.855431
21834.667969	-57.066544
21877.734375	-57.152534
21920.800781	-56.802444
21963.867188	-56.658573
22006.933594	-56.975895
