Frequency (Hz)	Level (dB)
43.066406	-26.955191
86.132812	-24.864883
129.199219	-24.725407
172.265625	-25.330776
215.332031	-25.425451
258.398438	-25.842865
301.464844	-25.806877
344.531250	-25.937895
387.597656	-26.581940
430.664062	-26.590427
473.730469	-26.463585
516.796875	-26.825588
559.863281	-26.687870
602.929688	-26.384911
645.996094	-26.537886
689.062500	-26.938749
732.128906	-26.601721
775.195312	-26.682281
818.261719	-26.430735
861.328125	-26.558100
904.394531	-26.865942
947.460938	-26.760212
990.527344	-26.330742
1033.593750	-26.105045
1076.660156	-26.023602
1119.726562	-26.258497
1162.792969	-26.268881
1205.859375	-25.963516
1248.925781	-26.154144
1291.992188	-26.397240
1335.058594	-26.688387
1378.125000	-26.231665
1421.191406	-26.661442
1464.257812	-27.080402
1507.324219	-26.706425
1550.390625	-26.545084
1593.457031	-26.488985
1636.523438	-26.683657
1679.589844	-26.583941
1722.656250	-26.725700
1765.722656	-27.004478
1808.789062	-26.923370
1851.855469	-27.073374
1894.921875	-27.341530
1937.988281	-27.462048
1981.054688	-27.585178
2024.121094	-27.679790
2067.187500	-27.546423
2110.253906	-27.926666
2153.320312	-27.658854
2196.386719	-27.629509
2239.453125	-27.528015
2282.519531	-27.308315
2325.585938	-27.627716
2368.652344	-27.830755
2411.718750	-27.997717
2454.785156	-27.927280
2497.851562	-28.174135
2540.917969	-28.616184
2583.984375	-28.540384
2627.050781	-28.559246
2670.117188	-28.687326
2713.183594	-28.620045
2756.250000	-28.628466
2799.316406	-28.920380
2842.382812	-28.960073
2885.449219	-28.711048
2928.515625	-28.939262
2971.582031	-28.976921
3014.648438	-29.417780
3057.714844	-29.610750
3100.781250	-29.212969
3143.847656	-29.416872
3186.914062	-29.508894
3229.980469	-29.442764
3273.046875	-29.800480
3316.113281	-29.672520
3359.179688	-29.924593
3402.246094	-30.124054
3445.312500	-29.895893
3488.378906	-30.335684
3531.445312	-30.739702
3574.511719	-30.597092
3617.578125	-30.838251
3660.644531	-30.768019
3703.710938	-30.626072
3746.777344	-30.962585
3789.843750	-31.369642
3832.910156	-30.881495
3875.976562	-30.867062
3919.042969	-30.982380
3962.109375	-31.072832
4005.175781	-30.883728
4048.242188	-31.196314
4091.308594	-30.944048
4134.375000	-31.117641
4177.441406	-31.526134
4220.507812	-31.625292
4263.574219	-31.581434
4306.640625	-31.883516
4349.707031	-31.790178
4392.773438	-32.238529
4435.839844	-32.385254
4478.906250	-32.368923
4521.972656	-32.155441
4565.039062	-32.236889
4608.105469	-32.391731
4651.171875	-32.550377
4694.238281	-32.723518
4737.304688	-33.005310
4780.371094	-32.665726
4823.437500	-32.523018
4866.503906	-33.088669
4909.570312	-33.294449
4952.636719	-32.946777
4995.703125	-33.318188
5038.769531	-33.491928
5081.835938	-33.384384
5124.902344	-33.614616
5167.968750	-33.677097
5211.035156	-33.671452
5254.101562	-33.480240
5297.167969	-34.005653
5340.234375	-33.572998
5383.300781	-33.920624
5426.367188	-34.230766
5469.433594	-34.371338
5512.500000	-34.524055
5555.566406	-34.359505
5598.632812	-34.227158
5641.699219	-34.320511
5684.765625	-34.625263
5727.832031	-35.119545
5770.898438	-35.327900
5813.964844	-35.026649
5857.031250	-35.116169
5900.097656	-35.008869
5943.164062	-34.787792
5986.230469	-34.840069
6029.296875	-35.228294
6072.363281	-35.175537
6115.429688	-34.928436
6158.496094	-35.314716
6201.562500	-35.656574
6244.628906	-35.649323
6287.695312	-35.732742
6330.761719	-35.562904
6373.828125	-35.654190
6416.894531	-35.666130
6459.960938	-35.870564
6503.027344	-36.040936
6546.093750	-36.104988
6589.160156	-36.139210
6632.226562	-36.589478
6675.292969	-36.875473
6718.359375	-36.852074
6761.425781	-36.932858
6804.492188	-36.846924
6847.558594	-36.151592
6890.625000	-36.295055
6933.691406	-36.596062
6976.757812	-36.598572
7019.824219	-36.915150
7062.890625	-37.377384
7105.957031	-37.422604
7149.023438	-37.761517
7192.089844	-37.537960
7235.156250	-37.213341
7278.222656	-37.277428
7321.289062	-37.782715
7364.355469	-37.679207
7407.421875	-37.672737
7450.488281	-37.792839
7493.554688	-38.253754
7536.621094	-38.464291
7579.687500	-37.997799
7622.753906	-38.199108
7665.820312	-38.421803
7708.886719	-38.710114
7751.953125	-38.562592
7795.019531	-38.496376
7838.085938	-38.385052
7881.152344	-38.393837
7924.218750	-38.434753
7967.285156	-38.792381
8010.351562	-38.984131
8053.417969	-39.209576
8096.484375	-39.032188
8139.550781	-38.779507
8182.617188	-38.719105
8225.683594	-38.653118
8268.750000	-39.028770
8311.816406	-39.129562
8354.882812	-39.681465
8397.949219	-39.732079
8441.015625	-39.837578
8484.082031	-40.032772
8527.148438	-40.118954
8570.214844	-39.959740
8613.281250	-39.676662
8656.347656	-39.624695
8699.414062	-39.841663
8742.480469	-40.259403
8785.546875	-40.072006
8828.613281	-40.091099
8871.679688	-40.333790
8914.746094	-40.556950
8957.812500	-40.871151
9000.878906	-40.722321
9043.945312	-40.618439
9087.011719	-40.439934
9130.078125	-40.687607
9173.144531	-40.927719
9216.210938	-40.660336
9259.277344	-41.012756
9302.343750	-41.268173
9345.410156	-41.491688
9388.476562	-41.250301
9431.542969	-41.475861
9474.609375	-41.386654
9517.675781	-41.656540
9560.742188	-41.769279
9603.808594	-41.454193
9646.875000	-41.818493
9689.941406	-41.587872
9733.007812	-41.752316
9776.074219	-41.788807
9819.140625	-42.151150
9862.207031	-41.996716
9905.273438	-42.315140
9948.339844	-42.161736
9991.406250	-42.293804
10034.472656	-42.365696
10077.539062	-42.315529
10120.605469	-42.036835
10163.671875	-42.225063
10206.738281	-42.587349
10249.804688	-42.808266
10292.871094	-42.201801
10335.937500	-42.490826
10379.003906	-42.540920
10422.070312	-42.562340
10465.136719	-42.797783
10508.203125	-42.519581
10551.269531	-42.632023
10594.335938	-42.962257
10637.402344	-43.190170
10680.468750	-43.319420
10723.535156	-43.240067
10766.601562	-43.100033
10809.667969	-43.044247
10852.734375	-42.915462
10895.800781	-43.435158
10938.867188	-43.431496
10981.933594	-43.417221
11025.000000	-43.486916
11068.066406	-43.678474
11111.132812	-44.095032
11154.199219	-44.147324
11197.265625	-44.116840
11240.332031	-44.024960
11283.398438	-43.775536
11326.464844	-43.823830
11369.531250	-43.908386
11412.597656	-44.224079
11455.664062	-44.218132
11498.730469	-44.366173
11541.796875	-44.463905
11584.863281	-44.787731
11627.929688	-44.587414
11670.996094	-44.577671
11714.062500	-44.624825
11757.128906	-44.411053
11800.195312	-44.703564
11843.261719	-44.686413
11886.328125	-44.408615
11929.394531	-44.959877
11972.460938	-45.098385
12015.527344	-45.084644
12058.593750	-44.837711
12101.660156	-44.520000
12144.726562	-45.060951
12187.792969	-45.664501
12230.859375	-45.601162
12273.925781	-45.716228
12316.992188	-46.064751
12360.058594	-45.777916
12403.125000	-45.492981
12446.191406	-45.437386
12489.257812	-45.823624
12532.324219	-45.695538
12575.390625	-45.961578
12618.457031	-45.983608
12661.523438	-45.741974
12704.589844	-45.542984
12747.656250	-45.651455
12790.722656	-46.109001
12833.789062	-46.718441
12876.855469	-46.487572
12919.921875	-46.093979
12962.988281	-46.262985
13006.054688	-46.744858
13049.121094	-46.629669
13092.187500	-46.458717
13135.253906	-46.521961
13178.320312	-46.659027
13221.386719	-46.793365
13264.453125	-47.131111
13307.519531	-46.950077
13350.585938	-46.612728
13393.652344	-46.887051
13436.718750	-47.162010
13479.785156	-47.225845
13522.851562	-46.860630
13565.917969	-47.202339
13608.984375	-47.682415
13652.050781	-47.223011
13695.117188	-47.521744
13738.183594	-47.641872
13781.250000	-47.666763
13824.316406	-47.155781
13867.382812	-47.239037
13910.449219	-47.794670
13953.515625	-47.930893
13996.582031	-47.831890
14039.648438	-47.838642
14082.714844	-47.793804
14125.781250	-47.943390
14168.847656	-48.255669
14211.914062	-48.418423
14254.980469	-48.216614
14298.046875	-47.925987
14341.113281	-47.833488
14384.179688	-48.125206
14427.246094	-48.300606
14470.312500	-48.292255
14513.378906	-48.710205
14556.445312	-48.629280
14599.511719	-48.888561
14642.578125	-48.462723
14685.644531	-49.048061
14728.710938	-49.097424
14771.777344	-48.589951
14814.843750	-48.571144
14857.910156	-48.524693
14900.976562	-48.541126
14944.042969	-48.984249
14987.109375	-48.730621
15030.175781	-48.923481
15073.242188	-49.179031
15116.308594	-49.333126
15159.375000	-49.338726
15202.441406	-49.258041
15245.507812	-49.291225
15288.574219	-49.496239
15331.640625	-49.237804
15374.707031	-49.566555
15417.773438	-49.620613
15460.839844	-49.380421
15503.906250	-49.421204
15546.972656	-49.754463
15590.039062	-49.807880
15633.105469	-50.059483
15676.171875	-50.035950
15719.238281	-50.122299
15762.304688	-50.388088
15805.371094	-50.615410
15848.437500	-50.207073
15891.503906	-49.746857
15934.570312	-50.003387
15977.636719	-50.031273
16020.703125	-50.375755
16063.769531	-50.516788
16106.835938	-50.294487
16149.902344	-50.327385
16192.968750	-50.387550
16236.035156	-50.831005
16279.101562	-50.629486
16322.167969	-50.854874
16365.234375	-51.131973
16408.300781	-50.624916
16451.367188	-50.499638
16494.433594	-50.681187
16537.500000	-51.318596
16580.566406	-51.681450
16623.632812	-51.247734
16666.699219	-51.059284
16709.765625	-50.868942
16752.832031	-50.913456
16795.898438	-51.191254
16838.964844	-51.149563
16882.031250	-51.307663
16925.097656	-51.499866
16968.164062	-51.386425
17011.230469	-51.127373
17054.296875	-51.042030
17097.363281	-51.969280
17140.429688	-51.854443
17183.496094	-51.754467
17226.562500	-52.214237
17269.628906	-51.857430
17312.695312	-52.208828
17355.761719	-52.118324
17398.828125	-51.982887
17441.894531	-51.536560
17484.960938	-51.600731
17528.027344	-51.902374
17571.093750	-52.523685
17614.160156	-52.278667
17657.226562	-52.529510
17700.292969	-52.524685
17743.359375	-52.370430
17786.425781	-52.407352
17829.492188	-52.500652
17872.558594	-52.486629
17915.625000	-52.661346
17958.691406	-52.732670
18001.757812	-53.183155
18044.824219	-52.908619
18087.890625	-52.607826
18130.957031	-53.104836
18174.023438	-52.609783
18217.089844	-53.152637
18260.156250	-53.254555
18303.222656	-53.010624
18346.289062	-52.858452
18389.355469	-53.441479
18432.421875	-53.155884
18475.488281	-53.315212
18518.554688	-53.441673
18561.621094	-53.416473
18604.687500	-53.352676
18647.753906	-53.352390
18690.820312	-53.671322
18733.886719	-53.963131
18776.953125	-53.637894
18820.019531	-53.844292
18863.085938	-53.476017
18906.152344	-53.240360
18949.218750	-53.651768
18992.285156	-53.666824
19035.351562	-53.365814
19078.417969	-53.509579
19121.484375	-53.545990
19164.550781	-53.852833
19207.617188	-53.850327
19250.683594	-53.839275
19293.750000	-54.342316
19336.816406	-54.428452
19379.882812	-54.301273
19422.949219	-53.848270
19466.015625	-54.068043
19509.082031	-54.285789
19552.148438	-54.067509
19595.214844	-54.156918
19638.281250	-54.250298
19681.347656	-54.002728
19724.414062	-54.246799
19767.480469	-54.432934
19810.546875	-54.875603
19853.613281	-54.980614
19896.679688	-54.647648
19939.746094	-54.716187
19982.812500	-54.608784
20025.878906	-54.260128
20068.945312	-54.556625
20112.011719	-54.715202
20155.078125	-54.981785
20198.144531	-55.346607
20241.210938	-54.939293
20284.277344	-55.097012
20327.343750	-55.065655
20370.410156	-54.860912
20413.476562	-54.522331
20456.542969	-54.593464
20499.609375	-55.298534
20542.675781	-55.540710
20585.742188	-55.408497
20628.808594	-55.672672
20671.875000	-55.785740
20714.941406	-55.998470
20758.007812	-55.969196
20801.074219	-55.847256
20844.140625	-56.110962
20887.207031	-56.248280
20930.273438	-55.834126
20973.339844	-55.536625
21016.406250	-55.794956
21059.472656	-56.222858
21102.539062	-56.405628
21145.605469	-56.706573
21188.671875	-56.359600
21231.738281	-56.350807
21274.804688	-56.581726
21317.871094	-56.658627
21360.937500	-56.723957
21404.003906	-57.169552
21447.070312	-57.370022
21490.136719	-57.051983
21533.203125	-57.208420
21576.269531	-57.439342
21619.335938	-57.479122
21662.402344	-57.337784
21705.468750	-57.112217
21748.535156	-57.246067
21791.601562	-57.417366
21834.667969	-57.812435
21877.734375	-57.922478
21920.800781	-57.985989
21963.867188	-58.583115
22006.933594	-58.840313
