Frequency (Hz)	Level (dB)
43.066406	-28.367407
86.132812	-23.952185
129.199219	-22.001377
172.265625	-20.641592
215.332031	-19.353243
258.398438	-18.483685
301.464844	-18.105627
344.531250	-17.775019
387.597656	-17.587536
430.664062	-17.328655
473.730469	-16.626907
516.796875	-16.675611
559.863281	-16.472855
602.929688	-15.790676
645.996094	-15.728284
689.062500	-16.029087
732.128906	-15.764934
775.195312	-15.771314
818.261719	-15.792002
861.328125	-16.130548
904.394531	-16.051662
947.460938	-15.671222
990.527344	-15.461555
1033.593750	-15.629405
1076.660156	-15.370250
1119.726562	-15.326201
1162.792969	-15.815056
1205.859375	-15.293033
1248.925781	-15.101758
1291.992188	-15.163548
1335.058594	-15.540975
1378.125000	-15.415642
1421.191406	-15.762798
1464.257812	-15.960136
1507.324219	-15.632726
1550.390625	-15.873940
1593.457031	-16.053810
1636.523438	-16.329687
1679.589844	-15.889198
1722.656250	-15.830832
1765.722656	-15.520924
1808.789062	-15.939442
1851.855469	-16.230501
1894.921875	-16.070215
1937.988281	-16.224792
1981.054688	-16.882187
2024.121094	-16.866982
2067.187500	-16.528963
2110.253906	-16.370806
2153.320312	-16.547720
2196.386719	-16.591658
2239.453125	-16.614517
2282.519531	-16.199980
2325.585938	-16.003899
2368.652344	-16.410681
2411.718750	-16.964933
2454.785156	-17.015112
2497.851562	-17.118843
2540.917969	-16.788506
2583.984375	-16.843664
2627.050781	-16.920313
2670.117188	-17.291857
2713.183594	-17.163244
2756.250000	-16.919336
2799.316406	-17.177313
2842.382812	-17.260210
2885.449219	-16.921494
2928.515625	-17.103920
2971.582031	-17.543808
3014.648438	-18.122026
3057.714844	-18.177324
3100.781250	-17.603209
3143.847656	-17.553593
3186.914062	-17.797739
3229.980469	-17.474226
3273.046875	-18.185602
3316.113281	-17.916422
3359.179688	-18.146147
3402.246094	-18.268337
3445.312500	-17.974855
3488.378906	-18.424934
3531.445312	-18.658709
3574.511719	-18.452721
3617.578125	-18.525274
3660.644531	-18.453053
3703.710938	-18.029024
3746.777344	-18.340492
3789.843750	-19.022825
3832.910156	-18.653267
3875.976562	-18.706211
3919.042969	-18.918375
3962.109375	-19.198210
4005.175781	-18.521704
4048.242188	-18.530706
4091.308594	-18.636826
4134.375000	-18.427828
4177.441406	-19.101974
4220.507812	-19.652050
4263.574219	-19.579340
4306.640625	-19.426641
4349.707031	-19.032263
4392.773438	-19.053152
4435.839844	-19.532351
4478.906250	-19.692726
4521.972656	-19.726002
4565.039062	-19.647713
4608.105469	-19.678423
4651.171875	-19.913818
4694.238281	-19.660526
4737.304688	-20.282192
4780.371094	-19.752552
4823.437500	-19.450325
4866.503906	-19.941000
4909.570312	-20.062502
4952.636719	-20.058336
4995.703125	-20.120453
5038.769531	-20.289194
5081.835938	-20.394508
5124.902344	-20.381056
5167.968750	-20.160450
5211.035156	-19.946487
5254.101562	-20.239315
5297.167969	-20.795464
5340.234375	-20.191530
5383.300781	-20.366739
5426.367188	-20.653673
5469.433594	-20.690166
5512.500000	-21.535534
5555.566406	-21.428236
5598.632812	-20.674791
5641.699219	-20.590227
5684.765625	-20.721310
5727.832031	-20.607445
5770.898438	-21.305758
5813.964844	-20.954762
5857.031250	-20.881378
5900.097656	-20.603960
5943.164062	-20.569166
5986.230469	-20.861032
6029.296875	-21.079933
6072.363281	-20.934134
6115.429688	-20.530039
6158.496094	-21.134079
6201.562500	-21.421804
6244.628906	-21.438143
6287.695312	-21.341406
6330.761719	-21.199118
6373.828125	-21.178938
6416.894531	-21.072784
6459.960938	-21.404013
6503.027344	-21.493908
6546.093750	-21.691141
6589.160156	-21.315464
6632.226562	-22.040667
6675.292969	-22.126526
6718.359375	-22.186789
6761.425781	-22.391428
6804.492188	-22.337591
6847.558594	-21.932426
6890.625000	-21.800079
6933.691406	-21.890947
6976.757812	-21.367676
7019.824219	-21.808859
7062.890625	-22.240059
7105.957031	-22.267570
7149.023438	-22.469015
7192.089844	-22.271368
7235.156250	-22.333752
7278.222656	-22.462507
7321.289062	-22.588463
7364.355469	-22.317711
7407.421875	-22.450697
7450.488281	-22.438128
7493.554688	-22.853489
7536.621094	-23.119059
7579.687500	-22.876352
7622.753906	-23.242247
7665.820312	-22.800356
7708.886719	-22.875179
7751.953125	-22.684721
7795.019531	-22.946753
7838.085938	-22.750914
7881.152344	-22.921366
7924.218750	-22.933847
7967.285156	-23.584417
8010.351562	-23.945065
8053.417969	-23.773100
8096.484375	-23.581505
8139.550781	-23.273495
8182.617188	-23.091137
8225.683594	-23.093998
8268.750000	-23.228626
8311.816406	-23.106422
8354.882812	-23.163429
8397.949219	-23.579861
8441.015625	-24.145014
8484.082031	-24.483404
8527.148438	-24.206179
8570.214844	-23.723728
8613.281250	-23.284449
8656.347656	-23.199537
8699.414062	-23.794483
8742.480469	-24.328365
8785.546875	-23.586044
8828.613281	-23.624420
8871.679688	-24.144228
8914.746094	-24.186125
8957.812500	-24.322731
9000.878906	-24.462313
9043.945312	-23.939884
9087.011719	-24.088760
9130.078125	-24.435543
9173.144531	-24.357508
9216.210938	-24.238459
9259.277344	-24.487610
9302.343750	-24.472803
9345.410156	-24.719969
9388.476562	-24.373962
9431.542969	-24.504675
9474.609375	-24.168501
9517.675781	-24.083973
9560.742188	-24.660610
9603.808594	-24.853243
9646.875000	-25.233587
9689.941406	-24.693411
9733.007812	-24.694199
9776.074219	-24.789333
9819.140625	-25.085894
9862.207031	-24.931665
9905.273438	-25.030649
9948.339844	-24.901499
9991.406250	-25.154743
10034.472656	-25.403353
10077.539062	-25.055893
10120.605469	-24.685392
10163.671875	-25.218161
10206.738281	-25.606016
10249.804688	-25.387745
10292.871094	-25.190760
10335.937500	-25.153231
10379.003906	-25.471846
10422.070312	-25.614279
10465.136719	-25.382353
10508.203125	-25.494078
10551.269531	-25.981119
10594.335938	-25.804043
10637.402344	-25.847198
10680.468750	-25.835434
10723.535156	-25.455055
10766.601562	-25.353987
10809.667969	-25.628994
10852.734375	-25.839056
10895.800781	-26.005882
10938.867188	-25.904766
10981.933594	-25.958805
11025.000000	-26.192392
11068.066406	-26.510221
11111.132812	-26.289158
11154.199219	-26.371019
11197.265625	-26.400276
11240.332031	-26.228188
11283.398438	-25.821529
11326.464844	-25.931248
11369.531250	-26.150608
11412.597656	-26.359354
11455.664062	-26.129620
11498.730469	-26.595829
11541.796875	-26.716492
11584.863281	-26.196377
11627.929688	-26.264679
11670.996094	-26.688843
11714.062500	-26.750534
11757.128906	-26.340366
11800.195312	-26.543165
11843.261719	-26.766352
11886.328125	-26.700840
11929.394531	-27.250740
11972.460938	-26.824677
12015.527344	-26.604877
12058.593750	-26.658714
12101.660156	-26.206059
12144.726562	-26.818531
12187.792969	-27.434000
12230.859375	-27.286005
12273.925781	-27.445726
12316.992188	-27.531818
12360.058594	-27.440498
12403.125000	-27.489885
12446.191406	-27.215570
12489.257812	-27.457211
12532.324219	-27.393187
12575.390625	-27.374805
12618.457031	-27.019762
12661.523438	-27.175732
12704.589844	-26.695585
12747.656250	-26.863762
12790.722656	-27.648592
12833.789062	-27.835680
12876.855469	-27.705687
12919.921875	-27.371586
12962.988281	-27.581890
13006.054688	-28.012413
13049.121094	-27.575123
13092.187500	-27.473764
13135.253906	-27.534609
13178.320312	-27.859806
13221.386719	-28.015747
13264.453125	-28.499100
13307.519531	-28.316698
13350.585938	-27.910358
13393.652344	-28.214136
13436.718750	-28.473219
13479.785156	-28.267672
13522.851562	-27.991497
13565.917969	-27.970890
13608.984375	-28.363684
13652.050781	-28.819342
13695.117188	-28.818188
13738.183594	-28.710930
13781.250000	-28.523771
13824.316406	-28.149317
13867.382812	-28.236759
13910.449219	-28.629707
13953.515625	-28.776148
13996.582031	-28.619366
14039.648438	-28.493938
14082.714844	-28.310549
14125.781250	-28.861744
14168.847656	-28.883430
14211.914062	-29.053017
14254.980469	-29.142908
14298.046875	-28.435215
14341.113281	-28.532187
14384.179688	-29.019041
14427.246094	-29.000832
14470.312500	-29.090656
14513.378906	-29.709108
14556.445312	-29.584629
14599.511719	-29.604813
14642.578125	-29.529207
14685.644531	-29.601768
14728.710938	-29.126284
14771.777344	-29.129271
14814.843750	-29.386505
14857.910156	-28.958494
14900.976562	-29.049116
14944.042969	-29.519260
14987.109375	-29.339663
15030.175781	-29.881594
15073.242188	-29.975542
15116.308594	-29.715179
15159.375000	-30.045076
15202.441406	-29.926195
15245.507812	-29.707787
15288.574219	-29.972357
15331.640625	-29.886908
15374.707031	-30.326595
15417.773438	-30.381100
15460.839844	-30.051394
15503.906250	-29.599199
15546.972656	-29.570353
15590.039062	-30.201962
15633.105469	-30.651272
15676.171875	-30.408316
15719.238281	-30.543177
15762.304688	-30.605055
15805.371094	-30.655941
15848.437500	-30.055815
15891.503906	-30.289574
15934.570312	-30.281948
15977.636719	-30.223782
16020.703125	-30.482124
16063.769531	-30.789495
16106.835938	-30.653364
16149.902344	-30.361557
16192.968750	-30.012180
16236.035156	-30.405758
16279.101562	-30.410257
16322.167969	-30.837559
16365.234375	-31.257862
16408.300781	-30.812935
16451.367188	-30.890900
16494.433594	-30.784891
16537.500000	-30.875563
16580.566406	-31.028948
16623.632812	-31.041422
16666.699219	-30.831287
16709.765625	-31.084362
16752.832031	-31.127344
16795.898438	-31.187450
16838.964844	-31.439213
16882.031250	-31.350605
16925.097656	-31.330133
16968.164062	-31.096003
17011.230469	-31.245462
17054.296875	-31.118980
17097.363281	-32.109741
17140.429688	-32.111004
17183.496094	-31.535887
17226.562500	-32.122425
17269.628906	-31.902594
17312.695312	-31.699184
17355.761719	-31.396902
17398.828125	-31.374577
17441.894531	-31.532646
17484.960938	-31.473242
17528.027344	-31.695744
17571.093750	-32.178387
17614.160156	-31.729427
17657.226562	-31.869480
17700.292969	-31.983519
17743.359375	-31.855963
17786.425781	-31.847811
17829.492188	-32.081818
17872.558594	-32.386898
17915.625000	-32.622154
17958.691406	-32.624981
18001.757812	-32.895836
18044.824219	-32.133549
18087.890625	-31.869904
18130.957031	-32.188709
18174.023438	-32.179527
18217.089844	-32.514641
18260.156250	-32.734547
18303.222656	-32.780769
18346.289062	-32.842312
18389.355469	-32.784916
18432.421875	-32.180386
18475.488281	-32.364517
18518.554688	-33.098457
18561.621094	-33.274235
18604.687500	-32.967411
18647.753906	-33.086151
18690.820312	-33.395557
18733.886719	-33.690109
18776.953125	-33.072899
18820.019531	-33.129574
18863.085938	-32.959267
18906.152344	-32.868408
18949.218750	-32.878407
18992.285156	-32.726719
19035.351562	-32.591007
19078.417969	-33.125572
19121.484375	-33.311970
19164.550781	-33.280811
19207.617188	-32.856895
19250.683594	-33.229286
19293.750000	-33.515858
19336.816406	-33.603973
19379.882812	-33.904190
19422.949219	-33.391346
19466.015625	-33.294910
19509.082031	-33.258240
19552.148438	-33.371010
19595.214844	-33.606911
19638.281250	-34.257244
19681.347656	-33.886982
19724.414062	-33.515858
19767.480469	-33.662354
19810.546875	-34.057838
19853.613281	-34.402939
19896.679688	-33.871395
19939.746094	-33.516003
19982.812500	-33.372913
20025.878906	-33.514793
20068.945312	-33.865829
20112.011719	-33.682415
20155.078125	-34.084507
20198.144531	-34.701344
20241.210938	-34.439743
20284.277344	-34.358429
20327.343750	-34.284374
20370.410156	-33.951477
20413.476562	-33.721001
20456.542969	-34.175381
20499.609375	-34.814152
20542.675781	-34.928513
20585.742188	-34.669758
20628.808594	-34.983829
20671.875000	-35.177109
20714.941406	-34.855457
20758.007812	-34.886677
20801.074219	-35.306561
20844.140625	-35.566105
20887.207031	-35.634281
20930.273438	-34.887848
20973.339844	-35.069870
21016.406250	-35.445557
21059.472656	-35.760540
21102.539062	-35.704727
21145.605469	-35.991035
21188.671875	-35.471401
21231.738281	-35.673168
21274.804688	-36.174995
21317.871094	-36.066940
21360.937500	-35.679073
21404.003906	-36.076286
21447.070312	-36.267570
21490.136719	-36.169830
21533.203125	-36.253468
21576.269531	-36.239006
21619.335938	-36.114750
21662.402344	-36.125324
21705.468750	-36.262939
21748.535156	-36.453411
21791.601562	-35.950123
21834.667969	-36.160786
21877.734375	-35.869305
21920.800781	-35.726288
21963.867188	-35.865520
22006.933594	-35.679363
