Frequency (Hz)	Level (dB)
43.066406	-16.576483
86.132812	-15.729084
129.199219	-17.213062
172.265625	-18.320839
215.332031	-19.266216
258.398438	-19.952576
301.464844	-20.828449
344.531250	-21.679375
387.597656	-22.094179
430.664062	-22.415447
473.730469	-22.760359
516.796875	-23.179462
559.863281	-22.977068
602.929688	-22.601322
645.996094	-22.730513
689.062500	-22.668562
732.128906	-22.441387
775.195312	-22.388691
818.261719	-22.427374
861.328125	-22.374077
904.394531	-22.711098
947.460938	-22.637899
990.527344	-22.587513
1033.593750	-22.594290
1076.660156	-22.354681
1119.726562	-22.508215
1162.792969	-22.298325
1205.859375	-22.058668
1248.925781	-22.311016
1291.992188	-23.003408
1335.058594	-22.382500
1378.125000	-21.843304
1421.191406	-22.008202
1464.257812	-22.239859
1507.324219	-21.974533
1550.390625	-22.325598
1593.457031	-22.391098
1636.523438	-22.362425
1679.589844	-22.351982
1722.656250	-23.103672
1765.722656	-22.843208
1808.789062	-22.086790
1851.855469	-22.361752
1894.921875	-22.637590
1937.988281	-22.580654
1981.054688	-22.495558
2024.121094	-23.336010
2067.187500	-23.393633
2110.253906	-23.013206
2153.320312	-22.763865
2196.386719	-23.253624
2239.453125	-23.413925
2282.519531	-23.279722
2325.585938	-23.600983
2368.652344	-23.724266
2411.718750	-24.052902
2454.785156	-24.202677
2497.851562	-24.262201
2540.917969	-24.070341
2583.984375	-24.040859
2627.050781	-24.394999
2670.117188	-24.328192
2713.183594	-24.467194
2756.250000	-24.834145
2799.316406	-24.645407
2842.382812	-24.992535
2885.449219	-25.142849
2928.515625	-25.166609
2971.582031	-25.117718
3014.648438	-25.339382
3057.714844	-25.183779
3100.781250	-25.334681
3143.847656	-25.683134
3186.914062	-25.654278
3229.980469	-25.131475
3273.046875	-25.409363
3316.113281	-25.829622
3359.179688	-25.530973
3402.246094	-25.747337
3445.312500	-26.070856
3488.378906	-26.539827
3531.445312	-26.800837
3574.511719	-26.038195
3617.578125	-25.987537
3660.644531	-26.505941
3703.710938	-27.115103
3746.777344	-27.058329
3789.843750	-26.982517
3832.910156	-27.286366
3875.976562	-27.463871
3919.042969	-27.592068
3962.109375	-27.707701
4005.175781	-27.511974
4048.242188	-27.456326
4091.308594	-27.901775
4134.375000	-27.868999
4177.441406	-28.179855
4220.507812	-28.567724
4263.574219	-28.616703
4306.640625	-28.274586
4349.707031	-28.122438
4392.773438	-28.697746
4435.839844	-28.957617
4478.906250	-28.510115
4521.972656	-29.227922
4565.039062	-29.121304
4608.105469	-28.882627
4651.171875	-28.981876
4694.238281	-29.661457
4737.304688	-29.723783
4780.371094	-29.299412
4823.437500	-29.629822
4866.503906	-29.871563
4909.570312	-30.008854
4952.636719	-30.474567
4995.703125	-29.981936
5038.769531	-30.130285
5081.835938	-30.261383
5124.902344	-30.322798
5167.968750	-30.589870
5211.035156	-30.734396
5254.101562	-30.768000
5297.167969	-30.812084
5340.234375	-31.047495
5383.300781	-31.088186
5426.367188	-31.111418
5469.433594	-31.364086
5512.500000	-31.459875
5555.566406	-31.840857
5598.632812	-31.795507
5641.699219	-31.560349
5684.765625	-31.779610
5727.832031	-31.790501
5770.898438	-31.963640
5813.964844	-32.701073
5857.031250	-32.456501
5900.097656	-32.219105
5943.164062	-32.472656
5986.230469	-32.282570
6029.296875	-32.664223
6072.363281	-32.730633
6115.429688	-33.249813
6158.496094	-33.588055
6201.562500	-33.601013
6244.628906	-33.466637
6287.695312	-33.565323
6330.761719	-33.777946
6373.828125	-33.853577
6416.894531	-33.548828
6459.960938	-34.042236
6503.027344	-33.995644
6546.093750	-34.079041
6589.160156	-34.408855
6632.226562	-33.982143
6675.292969	-34.265476
6718.359375	-34.646477
6761.425781	-34.559849
6804.492188	-34.906536
6847.558594	-35.279320
6890.625000	-35.040379
6933.691406	-35.125763
6976.757812	-34.958641
7019.824219	-34.839733
7062.890625	-34.860294
7105.957031	-35.201355
7149.023438	-35.683231
7192.089844	-35.671982
7235.156250	-35.415756
7278.222656	-35.414906
7321.289062	-35.758904
7364.355469	-35.822590
7407.421875	-36.317623
7450.488281	-36.947407
7493.554688	-37.107658
7536.621094	-36.830601
7579.687500	-36.357666
7622.753906	-36.600021
7665.820312	-37.025955
7708.886719	-37.433846
7751.953125	-37.064709
7795.019531	-37.056908
7838.085938	-37.587383
7881.152344	-37.817253
7924.218750	-37.570866
7967.285156	-37.493996
8010.351562	-38.098900
8053.417969	-38.289997
8096.484375	-38.102039
8139.550781	-38.599133
8182.617188	-38.762238
8225.683594	-38.394081
8268.750000	-38.636089
8311.816406	-38.526958
8354.882812	-38.507526
8397.949219	-38.855099
8441.015625	-38.659096
8484.082031	-38.989479
8527.148438	-39.053230
8570.214844	-39.345360
8613.281250	-39.234066
8656.347656	-39.612274
8699.414062	-40.244862
8742.480469	-40.138058
8785.546875	-39.740852
8828.613281	-39.491089
8871.679688	-39.867626
8914.746094	-39.886398
8957.812500	-39.935036
9000.878906	-40.110386
9043.945312	-40.372822
9087.011719	-40.840855
9130.078125	-40.395721
9173.144531	-40.254883
9216.210938	-41.084824
9259.277344	-41.107780
9302.343750	-40.930759
9345.410156	-40.682980
9388.476562	-41.236401
9431.542969	-41.468098
9474.609375	-41.282936
9517.675781	-41.359131
9560.742188	-41.838955
9603.808594	-42.064369
9646.875000	-42.178139
9689.941406	-42.155273
9733.007812	-41.933182
9776.074219	-41.983078
9819.140625	-42.386314
9862.207031	-41.933117
9905.273438	-42.089649
9948.339844	-42.508461
9991.406250	-42.537045
10034.472656	-42.441257
10077.539062	-42.532169
10120.605469	-42.743679
10163.671875	-43.318432
10206.738281	-43.287853
10249.804688	-43.436016
10292.871094	-43.128159
10335.937500	-43.034828
10379.003906	-43.586609
10422.070312	-43.876045
10465.136719	-44.044628
10508.203125	-43.926620
10551.269531	-44.115608
10594.335938	-44.006763
10637.402344	-44.192490
10680.468750	-43.993431
10723.535156	-44.480499
10766.601562	-44.518547
10809.667969	-44.097473
10852.734375	-44.264656
10895.800781	-45.012211
10938.867188	-45.177486
10981.933594	-45.005222
11025.000000	-44.634190
11068.066406	-44.792961
11111.132812	-45.794182
11154.199219	-45.436626
11197.265625	-45.215042
11240.332031	-45.320259
11283.398438	-45.583946
11326.464844	-45.707874
11369.531250	-45.273628
11412.597656	-45.438862
11455.664062	-45.835262
11498.730469	-45.836288
11541.796875	-45.556339
11584.863281	-46.047100
11627.929688	-46.109631
11670.996094	-45.762005
11714.062500	-45.978119
11757.128906	-46.095844
11800.195312	-46.576530
11843.261719	-46.686947
11886.328125	-46.641819
11929.394531	-46.348194
11972.460938	-46.605114
12015.527344	-46.619007
12058.593750	-46.903358
12101.660156	-47.186989
12144.726562	-46.989819
12187.792969	-46.882107
12230.859375	-47.425953
12273.925781	-47.423878
12316.992188	-47.369251
12360.058594	-47.478134
12403.125000	-47.577072
12446.191406	-47.483414
12489.257812	-47.746181
12532.324219	-48.167599
12575.390625	-48.297260
12618.457031	-48.076855
12661.523438	-48.069607
12704.589844	-48.316044
12747.656250	-48.193226
12790.722656	-47.652611
12833.789062	-47.884258
12876.855469	-47.977749
12919.921875	-48.066425
12962.988281	-48.733059
13006.054688	-48.462299
13049.121094	-48.084625
13092.187500	-48.318771
13135.253906	-48.168633
13178.320312	-47.885529
13221.386719	-48.327923
13264.453125	-48.879456
13307.519531	-48.790379
13350.585938	-48.901085
13393.652344	-48.980831
13436.718750	-49.067047
13479.785156	-48.827465
13522.851562	-48.934753
13565.917969	-48.908302
13608.984375	-49.172890
13652.050781	-49.576843
13695.117188	-49.386124
13738.183594	-49.184750
13781.250000	-49.094421
13824.316406	-49.559566
13867.382812	-49.290745
13910.449219	-49.036942
13953.515625	-49.333775
13996.582031	-49.533157
14039.648438	-49.516075
14082.714844	-49.950836
14125.781250	-50.310173
14168.847656	-50.220779
14211.914062	-49.811081
14254.980469	-50.122414
14298.046875	-49.736496
14341.113281	-49.585361
14384.179688	-49.507408
14427.246094	-49.946091
14470.312500	-50.184086
14513.378906	-49.815292
14556.445312	-49.874386
14599.511719	-50.210251
14642.578125	-49.907318
14685.644531	-49.999004
14728.710938	-50.139515
14771.777344	-50.159660
14814.843750	-50.000954
14857.910156	-50.120842
14900.976562	-50.188328
14944.042969	-50.507652
14987.109375	-50.751324
15030.175781	-50.992649
15073.242188	-51.114502
15116.308594	-51.143768
15159.375000	-50.897655
15202.441406	-50.926640
15245.507812	-50.744232
15288.574219	-50.651203
15331.640625	-50.948158
15374.707031	-50.545948
15417.773438	-50.366444
15460.839844	-50.642612
15503.906250	-50.982582
15546.972656	-51.204342
15590.039062	-50.683605
15633.105469	-50.950253
15676.171875	-51.103642
15719.238281	-51.222229
15762.304688	-51.270512
15805.371094	-51.236023
15848.437500	-50.960239
15891.503906	-51.303509
15934.570312	-51.537956
15977.636719	-51.445694
16020.703125	-50.999226
16063.769531	-50.876923
16106.835938	-51.173725
16149.902344	-51.200909
16192.968750	-51.157001
16236.035156	-51.561363
16279.101562	-51.774872
16322.167969	-51.940018
16365.234375	-51.893208
16408.300781	-51.591057
16451.367188	-51.618492
16494.433594	-51.980732
16537.500000	-51.421780
16580.566406	-51.492222
16623.632812	-51.894810
16666.699219	-51.732307
16709.765625	-51.976223
16752.832031	-51.691334
16795.898438	-51.997402
16838.964844	-51.962891
16882.031250	-51.914276
16925.097656	-51.770489
16968.164062	-51.861298
17011.230469	-52.105110
17054.296875	-52.241142
17097.363281	-52.058178
17140.429688	-51.808544
17183.496094	-51.812973
17226.562500	-51.848118
17269.628906	-51.811565
17312.695312	-51.867760
17355.761719	-52.017891
17398.828125	-52.123146
17441.894531	-52.240948
17484.960938	-52.170422
17528.027344	-52.392643
17571.093750	-52.210632
17614.160156	-52.237644
17657.226562	-52.129639
17700.292969	-51.777271
17743.359375	-52.287766
17786.425781	-52.279736
17829.492188	-52.303425
17872.558594	-52.138870
17915.625000	-52.463848
17958.691406	-52.668934
18001.757812	-52.571991
18044.824219	-52.816574
18087.890625	-52.493958
18130.957031	-52.299152
18174.023438	-52.320667
18217.089844	-52.441338
18260.156250	-52.171822
18303.222656	-52.213326
18346.289062	-52.264896
18389.355469	-52.615257
18432.421875	-52.591976
18475.488281	-52.652161
18518.554688	-52.697948
18561.621094	-52.931801
18604.687500	-52.680954
18647.753906	-52.717365
18690.820312	-52.754585
18733.886719	-52.200615
18776.953125	-52.584728
18820.019531	-52.555279
18863.085938	-52.633083
18906.152344	-52.729702
18949.218750	-52.843529
18992.285156	-53.122177
19035.351562	-52.914944
19078.417969	-52.346390
19121.484375	-52.136230
19164.550781	-52.445297
19207.617188	-52.642517
19250.683594	-52.638958
19293.750000	-52.560459
19336.816406	-52.345165
19379.882812	-52.564064
19422.949219	-52.782028
19466.015625	-52.687622
19509.082031	-52.888020
19552.148438	-52.786694
19595.214844	-52.474548
19638.281250	-52.531189
19681.347656	-52.418510
19724.414062	-52.311642
19767.480469	-52.105461
19810.546875	-52.027351
19853.613281	-51.668503
19896.679688	-51.735821
19939.746094	-51.862915
19982.812500	-52.157253
20025.878906	-52.514484
20068.945312	-52.695099
20112.011719	-52.183472
20155.078125	-52.336643
20198.144531	-52.304913
20241.210938	-52.234463
20284.277344	-51.930691
20327.343750	-52.115723
20370.410156	-52.422325
20413.476562	-52.455204
20456.542969	-51.893139
20499.609375	-51.592941
20542.675781	-51.589073
20585.742188	-51.362827
20628.808594	-51.449284
20671.875000	-51.152466
20714.941406	-51.353016
20758.007812	-51.134548
20801.074219	-50.750130
20844.140625	-51.068176
20887.207031	-51.291473
20930.273438	-50.752853
20973.339844	-50.958790
21016.406250	-51.221531
21059.472656	-50.734814
21102.539062	-50.388611
21145.605469	-50.114315
21188.671875	-50.495857
21231.738281	-50.276184
21274.804688	-50.463970
21317.871094	-49.942276
21360.937500	-49.374165
21404.003906	-49.619621
21447.070312	-50.024094
21490.136719	-49.748989
21533.203125	-49.824898
21576.269531	-49.571281
21619.335938	-49.756172
21662.402344	-49.777725
21705.468750	-49.008495
21748.535156	-48.759838
21791.601562	-48.794937
21834.667969	-48.989124
21877.734375	-48.626888
21920.800781	-48.594624
21963.867188	-48.876614
22006.933594	-49.348278
